# n + 208Pb: Continuum   (n,h)   cross section
# Q-value    =-9.95171E-01
# E-threshold= 9.99998E-01
# # energies = 46
#    E         xs      Continuum      (n,gh)
 1.000E+00 0.00000E+00 0.00000E+00 0.00000E+00
 1.200E+00 0.00000E+00 0.00000E+00 0.00000E+00
 1.400E+00 0.00000E+00 0.00000E+00 0.00000E+00
 1.600E+00 0.00000E+00 0.00000E+00 0.00000E+00
 1.800E+00 0.00000E+00 0.00000E+00 0.00000E+00
 2.000E+00 0.00000E+00 0.00000E+00 0.00000E+00
 2.200E+00 0.00000E+00 0.00000E+00 0.00000E+00
 2.400E+00 0.00000E+00 0.00000E+00 0.00000E+00
 2.600E+00 0.00000E+00 0.00000E+00 0.00000E+00
 2.800E+00 0.00000E+00 0.00000E+00 0.00000E+00
 3.000E+00 0.00000E+00 0.00000E+00 0.00000E+00
 3.200E+00 0.00000E+00 0.00000E+00 0.00000E+00
 3.400E+00 0.00000E+00 0.00000E+00 0.00000E+00
 3.600E+00 0.00000E+00 0.00000E+00 0.00000E+00
 3.800E+00 0.00000E+00 0.00000E+00 0.00000E+00
 4.000E+00 0.00000E+00 0.00000E+00 0.00000E+00
 4.200E+00 0.00000E+00 0.00000E+00 0.00000E+00
 4.400E+00 0.00000E+00 0.00000E+00 0.00000E+00
 4.600E+00 0.00000E+00 0.00000E+00 0.00000E+00
 4.800E+00 0.00000E+00 0.00000E+00 0.00000E+00
 5.000E+00 0.00000E+00 0.00000E+00 0.00000E+00
 5.500E+00 0.00000E+00 0.00000E+00 0.00000E+00
 6.000E+00 0.00000E+00 0.00000E+00 0.00000E+00
 6.500E+00 0.00000E+00 0.00000E+00 0.00000E+00
 7.000E+00 0.00000E+00 0.00000E+00 0.00000E+00
 7.500E+00 0.00000E+00 0.00000E+00 0.00000E+00
 8.000E+00 0.00000E+00 0.00000E+00 0.00000E+00
 8.500E+00 0.00000E+00 0.00000E+00 0.00000E+00
 9.000E+00 0.00000E+00 0.00000E+00 0.00000E+00
 9.500E+00 0.00000E+00 0.00000E+00 0.00000E+00
 1.000E+01 0.00000E+00 0.00000E+00 0.00000E+00
 1.100E+01 0.00000E+00 0.00000E+00 0.00000E+00
 1.200E+01 0.00000E+00 0.00000E+00 0.00000E+00
 1.300E+01-1.00545E-22-1.00545E-22 0.00000E+00
 1.400E+01-6.13281E-19-6.13281E-19 0.00000E+00
 1.500E+01-4.01261E-16-4.01261E-16 0.00000E+00
 1.600E+01-6.06716E-14-6.06716E-14 0.00000E+00
 1.700E+01-3.31548E-12-3.31548E-12 0.00000E+00
 1.800E+01-8.80680E-11-8.80680E-11 3.94179E-20
 1.900E+01-1.36044E-09-1.36044E-09 1.56674E-18
 2.000E+01-1.40408E-08-1.40408E-08 2.05182E-17
 2.200E+01-3.77427E-07-3.77427E-07 2.55437E-16
 2.400E+01-8.42924E-06-8.42924E-06 1.15168E-15
 2.600E+01-1.03522E-04-1.03522E-04 3.50085E-15
 2.800E+01 6.97840E-05 6.97840E-05 1.06588E-14
 3.000E+01 1.11390E-03 1.11390E-03 3.11102E-14
