# n + 208Pb   : (n,d)             Total
# Q-value    =-5.77907E+00
# E-threshold= 5.80710E+00
# # energies =    46
#     E          xs       gamma xs  xs/res.prod.xs
 1.00000E+00 0.00000E+00 0.00000E+00 0.00000E+00
 1.20000E+00 0.00000E+00 0.00000E+00 0.00000E+00
 1.40000E+00 0.00000E+00 0.00000E+00 0.00000E+00
 1.60000E+00 0.00000E+00 0.00000E+00 0.00000E+00
 1.80000E+00 0.00000E+00 0.00000E+00 0.00000E+00
 2.00000E+00 0.00000E+00 0.00000E+00 0.00000E+00
 2.20000E+00 0.00000E+00 0.00000E+00 0.00000E+00
 2.40000E+00 0.00000E+00 0.00000E+00 0.00000E+00
 2.60000E+00 0.00000E+00 0.00000E+00 0.00000E+00
 2.80000E+00 0.00000E+00 0.00000E+00 0.00000E+00
 3.00000E+00 0.00000E+00 0.00000E+00 0.00000E+00
 3.20000E+00 0.00000E+00 0.00000E+00 0.00000E+00
 3.40000E+00 0.00000E+00 0.00000E+00 0.00000E+00
 3.60000E+00 0.00000E+00 0.00000E+00 0.00000E+00
 3.80000E+00 0.00000E+00 0.00000E+00 0.00000E+00
 4.00000E+00 0.00000E+00 0.00000E+00 0.00000E+00
 4.20000E+00 0.00000E+00 0.00000E+00 0.00000E+00
 4.40000E+00 0.00000E+00 0.00000E+00 0.00000E+00
 4.60000E+00 0.00000E+00 0.00000E+00 0.00000E+00
 4.80000E+00 0.00000E+00 0.00000E+00 0.00000E+00
 5.00000E+00 0.00000E+00 0.00000E+00 0.00000E+00
 5.50000E+00 0.00000E+00 0.00000E+00 0.00000E+00
 6.00000E+00 0.00000E+00 0.00000E+00 0.00000E+00
 6.50000E+00 0.00000E+00 0.00000E+00 0.00000E+00
 7.00000E+00 0.00000E+00 0.00000E+00 0.00000E+00
 7.50000E+00 0.00000E+00 0.00000E+00 0.00000E+00
 8.00000E+00 0.00000E+00 0.00000E+00 0.00000E+00
 8.50000E+00 0.00000E+00 0.00000E+00 0.00000E+00
 9.00000E+00 0.00000E+00 0.00000E+00 0.00000E+00
 9.50000E+00 0.00000E+00 0.00000E+00 0.00000E+00
 1.00000E+01 0.00000E+00 0.00000E+00 0.00000E+00
 1.10000E+01 1.04215E-06 0.00000E+00 0.00000E+00
 1.20000E+01 1.45653E-05 0.00000E+00 0.00000E+00
 1.30000E+01 1.62312E-04 0.00000E+00 0.00000E+00
 1.40000E+01 3.14256E-03 1.74924E-03 5.59576E-01
 1.50000E+01 2.27626E-02 1.41160E-02 5.93463E-01
 1.60000E+01 1.09809E-01 7.61118E-02 6.18653E-01
 1.70000E+01 3.66330E-01 2.91878E-01 6.08813E-01
 1.80000E+01 8.54871E-01 8.12960E-01 5.76331E-01
 1.90000E+01 1.59890E+00 1.81324E+00 5.31658E-01
 2.00000E+01 2.57128E+00 3.38447E+00 4.84433E-01
 2.20000E+01 4.94225E+00 8.18546E+00 3.97188E-01
 2.40000E+01 7.38198E+00 1.44122E+01 3.25946E-01
 2.60000E+01 9.38152E+00 2.04753E+01 2.74577E-01
 2.80000E+01 1.12855E+01 2.54577E+01 2.45989E-01
 3.00000E+01 1.19604E+01 2.83506E+01 2.15683E-01
