# n + 208Pb   : (n,g)             Total
# Q-value    = 3.93731E+00
# E-threshold= 0.00000E+00
# # energies = 46
#    E         xs       gamma xs  xs/res.prod.xs
 1.000E+00 1.92452E-01 3.48872E-01 1.00000E+00
 1.200E+00 2.35002E-01 4.35691E-01 1.00000E+00
 1.400E+00 2.90625E-01 5.54769E-01 1.00000E+00
 1.600E+00 3.56940E-01 6.97846E-01 1.00000E+00
 1.800E+00 4.39971E-01 8.82793E-01 1.00000E+00
 2.000E+00 5.43801E-01 1.12074E+00 1.00000E+00
 2.200E+00 6.70818E-01 1.41764E+00 1.00000E+00
 2.400E+00 8.26660E-01 1.79003E+00 1.00000E+00
 2.600E+00 1.02344E+00 2.27660E+00 1.00000E+00
 2.800E+00 9.51070E-01 2.21088E+00 1.00000E+00
 3.000E+00 9.44539E-01 2.25516E+00 1.00000E+00
 3.200E+00 1.00091E+00 2.43503E+00 1.00000E+00
 3.400E+00 7.14815E-01 1.70103E+00 1.00000E+00
 3.600E+00 6.78153E-01 1.61581E+00 1.00000E+00
 3.800E+00 6.46372E-01 1.54051E+00 1.00000E+00
 4.000E+00 6.18971E-01 1.48186E+00 1.00000E+00
 4.200E+00 5.24574E-01 1.24815E+00 1.00000E+00
 4.400E+00 5.61121E-01 1.28940E+00 1.00000E+00
 4.600E+00 5.32447E-01 1.20169E+00 1.00000E+00
 4.800E+00 5.11093E-01 1.15262E+00 1.00000E+00
 5.000E+00 5.05323E-01 1.12455E+00 1.00000E+00
 5.500E+00 5.22714E-01 1.15542E+00 1.00000E+00
 6.000E+00 5.62891E-01 1.23060E+00 1.00000E+00
 6.500E+00 6.41987E-01 1.40171E+00 1.00000E+00
 7.000E+00 7.55341E-01 1.64525E+00 1.00000E+00
 7.500E+00 9.01507E-01 1.99010E+00 1.00000E+00
 8.000E+00 1.05738E+00 2.39284E+00 1.00000E+00
 8.500E+00 1.20986E+00 2.82212E+00 1.00000E+00
 9.000E+00 1.35538E+00 3.28013E+00 1.00000E+00
 9.500E+00 1.47679E+00 3.70925E+00 1.00000E+00
 1.000E+01 1.57234E+00 4.05291E+00 1.00000E+00
 1.100E+01 1.58553E+00 4.30185E+00 1.00000E+00
 1.200E+01 1.46310E+00 4.15603E+00 1.00000E+00
 1.300E+01 1.28248E+00 3.78683E+00 1.00000E+00
 1.400E+01 1.11954E+00 3.43072E+00 1.00000E+00
 1.500E+01 9.49317E-01 2.96056E+00 1.00000E+00
 1.600E+01 7.98601E-01 2.48889E+00 1.00000E+00
 1.700E+01 6.89905E-01 2.13671E+00 1.00000E+00
 1.800E+01 6.00839E-01 1.83380E+00 1.00000E+00
 1.900E+01 5.42148E-01 1.65575E+00 1.00000E+00
 2.000E+01 4.98560E-01 1.52042E+00 1.00000E+00
 2.200E+01 4.43080E-01 1.36189E+00 1.00000E+00
 2.400E+01 4.00574E-01 1.24591E+00 1.00000E+00
 2.600E+01 3.61888E-01 1.13670E+00 1.00000E+00
 2.800E+01 3.18945E-01 9.99031E-01 1.00000E+00
 3.000E+01 2.88959E-01 9.22167E-01 1.00000E+00
