# n + 208Pb   : (n,a)             Total
# Q-value    = 6.18644E+00
# E-threshold= 0.00000E+00
# # energies = 46
#    E         xs       gamma xs  xs/res.prod.xs
 1.000E+00 1.00000E-07 1.00000E-07 0.00000E+00
 1.200E+00 1.00000E-07 1.00000E-07 0.00000E+00
 1.400E+00 1.00000E-07 1.00000E-07 0.00000E+00
 1.600E+00 1.00000E-07 1.00000E-07 0.00000E+00
 1.800E+00 1.00000E-07 1.00000E-07 0.00000E+00
 2.000E+00 1.00000E-07 1.00000E-07 0.00000E+00
 2.200E+00 1.00000E-07 1.00000E-07 0.00000E+00
 2.400E+00 1.00000E-07 1.00000E-07 0.00000E+00
 2.600E+00 1.00000E-07 1.00000E-07 0.00000E+00
 2.800E+00 1.00000E-07 1.00000E-07 0.00000E+00
 3.000E+00 1.00000E-07 1.00000E-07 0.00000E+00
 3.200E+00 1.00000E-07 1.00000E-07 0.00000E+00
 3.400E+00 1.00000E-07 1.00000E-07 0.00000E+00
 3.600E+00 1.00000E-07 1.00000E-07 0.00000E+00
 3.800E+00 1.00000E-07 1.00000E-07 0.00000E+00
 4.000E+00 1.00000E-07 1.00000E-07 0.00000E+00
 4.200E+00 1.00000E-07 1.00000E-07 0.00000E+00
 4.400E+00 5.37002E-05 0.00000E+00 0.00000E+00
 4.600E+00 6.45714E-05 0.00000E+00 0.00000E+00
 4.800E+00 7.07307E-05 0.00000E+00 0.00000E+00
 5.000E+00 9.20734E-05 0.00000E+00 0.00000E+00
 5.500E+00 1.39634E-04 0.00000E+00 0.00000E+00
 6.000E+00 2.04079E-04 0.00000E+00 0.00000E+00
 6.500E+00 2.89401E-04 0.00000E+00 0.00000E+00
 7.000E+00 1.29300E-03 1.23718E-03 9.99995E-01
 7.500E+00 1.88925E-03 2.03788E-03 9.99993E-01
 8.000E+00 2.67692E-03 3.26170E-03 9.99992E-01
 8.500E+00 3.67306E-03 5.00864E-03 9.99990E-01
 9.000E+00 4.92937E-03 7.53979E-03 9.99988E-01
 9.500E+00 6.46808E-03 1.10174E-02 9.99987E-01
 1.000E+01 8.37793E-03 1.58576E-02 9.99985E-01
 1.100E+01 1.37698E-02 3.15803E-02 9.99983E-01
 1.200E+01 2.31316E-02 6.20709E-02 9.99982E-01
 1.300E+01 4.13652E-02 1.23919E-01 9.99985E-01
 1.400E+01 8.28593E-02 2.61488E-01 9.99989E-01
 1.500E+01 1.81610E-01 5.83095E-01 9.99993E-01
 1.600E+01 3.58288E-01 1.27746E+00 9.99996E-01
 1.700E+01 6.28792E-01 2.41284E+00 9.99997E-01
 1.800E+01 9.49165E-01 3.87404E+00 9.99997E-01
 1.900E+01 1.29401E+00 5.59367E+00 9.99998E-01
 2.000E+01 1.61282E+00 7.34923E+00 9.99997E-01
 2.200E+01 2.04810E+00 1.00309E+01 9.99997E-01
 2.400E+01 2.37473E+00 1.19273E+01 9.99995E-01
 2.600E+01 2.43735E+00 1.26900E+01 9.99993E-01
 2.800E+01 1.86464E+00 9.85133E+00 9.99989E-01
 3.000E+01 1.49100E+00 8.16902E+00 9.99977E-01
