# n + 208Pb   : (n,h)             Total
# Q-value    =-7.66360E+00
# E-threshold= 7.70076E+00
# # energies = 46
#    E         xs       gamma xs  xs/res.prod.xs
 1.000E+00 0.00000E+00 0.00000E+00 0.00000E+00
 1.200E+00 0.00000E+00 0.00000E+00 0.00000E+00
 1.400E+00 0.00000E+00 0.00000E+00 0.00000E+00
 1.600E+00 0.00000E+00 0.00000E+00 0.00000E+00
 1.800E+00 0.00000E+00 0.00000E+00 0.00000E+00
 2.000E+00 0.00000E+00 0.00000E+00 0.00000E+00
 2.200E+00 0.00000E+00 0.00000E+00 0.00000E+00
 2.400E+00 0.00000E+00 0.00000E+00 0.00000E+00
 2.600E+00 0.00000E+00 0.00000E+00 0.00000E+00
 2.800E+00 0.00000E+00 0.00000E+00 0.00000E+00
 3.000E+00 0.00000E+00 0.00000E+00 0.00000E+00
 3.200E+00 0.00000E+00 0.00000E+00 0.00000E+00
 3.400E+00 0.00000E+00 0.00000E+00 0.00000E+00
 3.600E+00 0.00000E+00 0.00000E+00 0.00000E+00
 3.800E+00 0.00000E+00 0.00000E+00 0.00000E+00
 4.000E+00 0.00000E+00 0.00000E+00 0.00000E+00
 4.200E+00 0.00000E+00 0.00000E+00 0.00000E+00
 4.400E+00 0.00000E+00 0.00000E+00 0.00000E+00
 4.600E+00 0.00000E+00 0.00000E+00 0.00000E+00
 4.800E+00 0.00000E+00 0.00000E+00 0.00000E+00
 5.000E+00 0.00000E+00 0.00000E+00 0.00000E+00
 5.500E+00 0.00000E+00 0.00000E+00 0.00000E+00
 6.000E+00 0.00000E+00 0.00000E+00 0.00000E+00
 6.500E+00 0.00000E+00 0.00000E+00 0.00000E+00
 7.000E+00 0.00000E+00 0.00000E+00 0.00000E+00
 7.500E+00 0.00000E+00 0.00000E+00 0.00000E+00
 8.000E+00 0.00000E+00 0.00000E+00 0.00000E+00
 8.500E+00 0.00000E+00 0.00000E+00 0.00000E+00
 9.000E+00 0.00000E+00 0.00000E+00 0.00000E+00
 9.500E+00 0.00000E+00 0.00000E+00 0.00000E+00
 1.000E+01 0.00000E+00 0.00000E+00 0.00000E+00
 1.100E+01 0.00000E+00 0.00000E+00 0.00000E+00
 1.200E+01 0.00000E+00 0.00000E+00 0.00000E+00
 1.300E+01 0.00000E+00 0.00000E+00 0.00000E+00
 1.400E+01 0.00000E+00 0.00000E+00 0.00000E+00
 1.500E+01 0.00000E+00 0.00000E+00 0.00000E+00
 1.600E+01 0.00000E+00 0.00000E+00 0.00000E+00
 1.700E+01 0.00000E+00 0.00000E+00 0.00000E+00
 1.800E+01 0.00000E+00 0.00000E+00 0.00000E+00
 1.900E+01 0.00000E+00 0.00000E+00 0.00000E+00
 2.000E+01 0.00000E+00 0.00000E+00 0.00000E+00
 2.200E+01 3.49288E-07 0.00000E+00 0.00000E+00
 2.400E+01 5.53951E-06 0.00000E+00 0.00000E+00
 2.600E+01 5.00865E-05 0.00000E+00 0.00000E+00
 2.800E+01 1.50024E-03 1.94841E-03 9.99998E-01
 3.000E+01 7.20493E-03 1.10497E-02 9.99996E-01
