# n + 208Pb   : (n,a)             Total
# Q-value    = 6.18580E+00
# E-threshold= 0.00000E+00
# # energies =    46
#     E          xs       gamma xs  xs/res.prod.xs
 1.00000E+00 1.00000E-07 1.00000E-07 0.00000E+00
 1.20000E+00 1.00000E-07 1.00000E-07 0.00000E+00
 1.40000E+00 1.00000E-07 1.00000E-07 0.00000E+00
 1.60000E+00 1.00000E-07 1.00000E-07 0.00000E+00
 1.80000E+00 1.00000E-07 1.00000E-07 0.00000E+00
 2.00000E+00 1.00000E-07 1.00000E-07 0.00000E+00
 2.20000E+00 1.00000E-07 1.00000E-07 0.00000E+00
 2.40000E+00 1.00000E-07 1.00000E-07 0.00000E+00
 2.60000E+00 1.00000E-07 1.00000E-07 0.00000E+00
 2.80000E+00 1.00000E-07 1.00000E-07 0.00000E+00
 3.00000E+00 1.00000E-07 1.00000E-07 0.00000E+00
 3.20000E+00 1.00000E-07 1.00000E-07 0.00000E+00
 3.40000E+00 1.00000E-07 1.00000E-07 0.00000E+00
 3.60000E+00 1.00000E-07 1.00000E-07 0.00000E+00
 3.80000E+00 1.00000E-07 1.00000E-07 0.00000E+00
 4.00000E+00 1.00000E-07 1.00000E-07 0.00000E+00
 4.20000E+00 1.00000E-07 1.00000E-07 0.00000E+00
 4.40000E+00 2.20598E-05 0.00000E+00 0.00000E+00
 4.60000E+00 2.88148E-05 0.00000E+00 0.00000E+00
 4.80000E+00 3.44621E-05 0.00000E+00 0.00000E+00
 5.00000E+00 4.71281E-05 0.00000E+00 0.00000E+00
 5.50000E+00 7.62986E-05 0.00000E+00 0.00000E+00
 6.00000E+00 1.16325E-04 0.00000E+00 0.00000E+00
 6.50000E+00 1.70947E-04 0.00000E+00 0.00000E+00
 7.00000E+00 2.43253E-04 0.00000E+00 0.00000E+00
 7.50000E+00 1.53701E-03 2.08978E-03 9.99992E-01
 8.00000E+00 2.35094E-03 3.59867E-03 9.99990E-01
 8.50000E+00 3.48866E-03 5.96166E-03 9.99987E-01
 9.00000E+00 4.97420E-03 9.32631E-03 9.99983E-01
 9.50000E+00 6.85591E-03 1.39451E-02 9.99979E-01
 1.00000E+01 9.18641E-03 2.01798E-02 9.99975E-01
 1.10000E+01 1.51833E-02 3.81636E-02 9.99965E-01
 1.20000E+01 2.30907E-02 6.55221E-02 9.99954E-01
 1.30000E+01 3.33143E-02 1.05334E-01 9.99945E-01
 1.40000E+01 4.77224E-02 1.65430E-01 9.99939E-01
 1.50000E+01 7.37506E-02 2.67550E-01 9.99943E-01
 1.60000E+01 1.19656E-01 4.46772E-01 9.99954E-01
 1.70000E+01 1.95129E-01 7.54265E-01 9.99964E-01
 1.80000E+01 3.12505E-01 1.25667E+00 9.99972E-01
 1.90000E+01 4.75466E-01 1.99937E+00 9.99979E-01
 2.00000E+01 6.78979E-01 2.98883E+00 9.99978E-01
 2.20000E+01 1.16606E+00 5.56247E+00 9.99987E-01
 2.40000E+01 1.77959E+00 8.94521E+00 9.99988E-01
 2.60000E+01 2.08964E+00 1.09381E+01 9.99987E-01
 2.80000E+01 1.76031E+00 9.54840E+00 9.99983E-01
 3.00000E+01 1.42652E+00 7.93766E+00 9.99941E-01
