# n + 208Pb   : (n,a)             Total
# Q-value    = 6.18580E+00
# E-threshold= 0.00000E+00
# # energies = 46
#    E         xs       gamma xs  xs/res.prod.xs
 1.000E+00 1.00000E-07 1.00000E-07 0.00000E+00
 1.200E+00 1.00000E-07 1.00000E-07 0.00000E+00
 1.400E+00 1.00000E-07 1.00000E-07 0.00000E+00
 1.600E+00 1.00000E-07 1.00000E-07 0.00000E+00
 1.800E+00 1.00000E-07 1.00000E-07 0.00000E+00
 2.000E+00 1.00000E-07 1.00000E-07 0.00000E+00
 2.200E+00 1.00000E-07 1.00000E-07 0.00000E+00
 2.400E+00 1.00000E-07 1.00000E-07 0.00000E+00
 2.600E+00 1.00000E-07 1.00000E-07 0.00000E+00
 2.800E+00 1.00000E-07 1.00000E-07 0.00000E+00
 3.000E+00 1.00000E-07 1.00000E-07 0.00000E+00
 3.200E+00 1.00000E-07 1.00000E-07 0.00000E+00
 3.400E+00 1.00000E-07 1.00000E-07 0.00000E+00
 3.600E+00 1.00000E-07 1.00000E-07 0.00000E+00
 3.800E+00 1.00000E-07 1.00000E-07 0.00000E+00
 4.000E+00 1.00000E-07 1.00000E-07 0.00000E+00
 4.200E+00 1.00000E-07 1.00000E-07 0.00000E+00
 4.400E+00 2.20555E-05 0.00000E+00 0.00000E+00
 4.600E+00 2.88099E-05 0.00000E+00 0.00000E+00
 4.800E+00 3.44755E-05 0.00000E+00 0.00000E+00
 5.000E+00 4.73675E-05 0.00000E+00 0.00000E+00
 5.500E+00 7.86703E-05 0.00000E+00 0.00000E+00
 6.000E+00 1.23740E-04 0.00000E+00 0.00000E+00
 6.500E+00 1.88425E-04 0.00000E+00 0.00000E+00
 7.000E+00 1.10399E-03 1.28113E-03 9.99980E-01
 7.500E+00 1.84704E-03 2.48556E-03 9.99972E-01
 8.000E+00 2.96553E-03 4.49312E-03 9.99960E-01
 8.500E+00 4.63215E-03 7.83462E-03 9.99944E-01
 9.000E+00 6.96436E-03 1.29213E-02 9.99924E-01
 9.500E+00 1.01300E-02 2.03843E-02 9.99899E-01
 1.000E+01 1.43260E-02 3.11229E-02 9.99867E-01
 1.100E+01 2.63173E-02 6.53664E-02 9.99781E-01
 1.200E+01 4.41277E-02 1.23698E-01 9.99659E-01
 1.300E+01 6.86352E-02 2.14783E-01 9.99495E-01
 1.400E+01 1.00713E-01 3.48539E-01 9.99296E-01
 1.500E+01 1.44730E-01 5.38359E-01 9.99103E-01
 1.600E+01 2.05754E-01 8.04870E-01 9.98957E-01
 1.700E+01 2.90129E-01 1.18100E+00 9.98886E-01
 1.800E+01 4.09852E-01 1.72262E+00 9.98889E-01
 1.900E+01 5.68729E-01 2.46888E+00 9.98943E-01
 2.000E+01 7.61550E-01 3.41963E+00 9.99016E-01
 2.200E+01 1.21254E+00 5.79199E+00 9.99223E-01
 2.400E+01 1.79475E+00 8.95579E+00 9.99414E-01
 2.600E+01 2.09270E+00 1.08709E+01 9.99508E-01
 2.800E+01 1.75754E+00 9.47647E+00 9.99488E-01
 3.000E+01 1.42408E+00 7.89004E+00 9.99428E-01
