# n + 208Pb   : (n,p)             Total
# Q-value    =-4.21653E+00
# E-threshold= 4.23698E+00
# # energies =    46
#     E          xs       gamma xs  xs/res.prod.xs
 1.00000E+00 0.00000E+00 0.00000E+00 0.00000E+00
 1.20000E+00 0.00000E+00 0.00000E+00 0.00000E+00
 1.40000E+00 0.00000E+00 0.00000E+00 0.00000E+00
 1.60000E+00 0.00000E+00 0.00000E+00 0.00000E+00
 1.80000E+00 0.00000E+00 0.00000E+00 0.00000E+00
 2.00000E+00 0.00000E+00 0.00000E+00 0.00000E+00
 2.20000E+00 0.00000E+00 0.00000E+00 0.00000E+00
 2.40000E+00 0.00000E+00 0.00000E+00 0.00000E+00
 2.60000E+00 0.00000E+00 0.00000E+00 0.00000E+00
 2.80000E+00 0.00000E+00 0.00000E+00 0.00000E+00
 3.00000E+00 0.00000E+00 0.00000E+00 0.00000E+00
 3.20000E+00 0.00000E+00 0.00000E+00 0.00000E+00
 3.40000E+00 0.00000E+00 0.00000E+00 0.00000E+00
 3.60000E+00 0.00000E+00 0.00000E+00 0.00000E+00
 3.80000E+00 0.00000E+00 0.00000E+00 0.00000E+00
 4.00000E+00 0.00000E+00 0.00000E+00 0.00000E+00
 4.20000E+00 0.00000E+00 0.00000E+00 0.00000E+00
 4.40000E+00 0.00000E+00 0.00000E+00 0.00000E+00
 4.60000E+00 0.00000E+00 0.00000E+00 0.00000E+00
 4.80000E+00 0.00000E+00 0.00000E+00 0.00000E+00
 5.00000E+00 0.00000E+00 0.00000E+00 0.00000E+00
 5.50000E+00 0.00000E+00 0.00000E+00 0.00000E+00
 6.00000E+00 0.00000E+00 0.00000E+00 0.00000E+00
 6.50000E+00 0.00000E+00 0.00000E+00 0.00000E+00
 7.00000E+00 0.00000E+00 0.00000E+00 0.00000E+00
 7.50000E+00 0.00000E+00 0.00000E+00 0.00000E+00
 8.00000E+00 1.70781E-06 0.00000E+00 0.00000E+00
 8.50000E+00 1.29452E-05 0.00000E+00 0.00000E+00
 9.00000E+00 5.23912E-05 0.00000E+00 0.00000E+00
 9.50000E+00 1.48210E-04 0.00000E+00 0.00000E+00
 1.00000E+01 1.34862E-03 1.82305E-03 9.99997E-01
 1.10000E+01 6.33421E-03 1.12049E-02 9.99994E-01
 1.20000E+01 2.14135E-02 4.64480E-02 9.99991E-01
 1.30000E+01 6.64121E-02 1.64928E-01 9.99990E-01
 1.40000E+01 1.90309E-01 5.11639E-01 9.99992E-01
 1.50000E+01 4.74108E-01 1.34635E+00 9.99994E-01
 1.60000E+01 1.00556E+00 2.98644E+00 9.99996E-01
 1.70000E+01 1.88302E+00 5.80820E+00 9.99997E-01
 1.80000E+01 3.02283E+00 9.65936E+00 9.99998E-01
 1.90000E+01 4.35590E+00 1.44019E+01 9.99998E-01
 2.00000E+01 5.75268E+00 1.96512E+01 9.99999E-01
 2.20000E+01 8.36611E+00 2.99904E+01 9.99999E-01
 2.40000E+01 9.79999E+00 3.65001E+01 9.99999E-01
 2.60000E+01 1.05206E+01 3.97825E+01 9.99998E-01
 2.80000E+01 1.06529E+01 4.08472E+01 9.99998E-01
 3.00000E+01 1.04224E+01 4.03020E+01 9.99998E-01
