# n + 208Pb   : (n,na)            Total
# Q-value    = 5.16635E-01
# E-threshold= 0.00000E+00
# # energies =    46
#     E          xs       gamma xs  xs/res.prod.xs
 1.00000E+00 1.00000E-07 1.00000E-07 0.00000E+00
 1.20000E+00 1.00000E-07 1.00000E-07 0.00000E+00
 1.40000E+00 1.00000E-07 1.00000E-07 0.00000E+00
 1.60000E+00 1.00000E-07 1.00000E-07 0.00000E+00
 1.80000E+00 1.00000E-07 1.00000E-07 0.00000E+00
 2.00000E+00 1.00000E-07 1.00000E-07 0.00000E+00
 2.20000E+00 1.00000E-07 1.00000E-07 0.00000E+00
 2.40000E+00 1.00000E-07 1.00000E-07 0.00000E+00
 2.60000E+00 1.00000E-07 1.00000E-07 0.00000E+00
 2.80000E+00 1.00000E-07 1.00000E-07 0.00000E+00
 3.00000E+00 1.00000E-07 1.00000E-07 0.00000E+00
 3.20000E+00 1.00000E-07 1.00000E-07 0.00000E+00
 3.40000E+00 1.00000E-07 1.00000E-07 0.00000E+00
 3.60000E+00 1.00000E-07 1.00000E-07 0.00000E+00
 3.80000E+00 1.00000E-07 1.00000E-07 0.00000E+00
 4.00000E+00 1.00000E-07 1.00000E-07 0.00000E+00
 4.20000E+00 1.00000E-07 1.00000E-07 0.00000E+00
 4.40000E+00 1.00000E-07 1.00000E-07 0.00000E+00
 4.60000E+00 1.00000E-07 1.00000E-07 0.00000E+00
 4.80000E+00 1.00000E-07 1.00000E-07 0.00000E+00
 5.00000E+00 1.00000E-07 1.00000E-07 0.00000E+00
 5.50000E+00 1.00000E-07 1.00000E-07 0.00000E+00
 6.00000E+00 1.00000E-07 1.00000E-07 0.00000E+00
 6.50000E+00 1.00000E-07 1.00000E-07 0.00000E+00
 7.00000E+00 1.00000E-07 1.00000E-07 0.00000E+00
 7.50000E+00 1.00000E-07 1.00000E-07 0.00000E+00
 8.00000E+00 1.00000E-07 1.00000E-07 0.00000E+00
 8.50000E+00 1.00000E-07 1.00000E-07 0.00000E+00
 9.00000E+00 1.00000E-07 1.00000E-07 0.00000E+00
 9.50000E+00 1.00000E-07 1.00000E-07 0.00000E+00
 1.00000E+01 1.00000E-07 1.00000E-07 0.00000E+00
 1.10000E+01 1.00000E-07 1.00000E-07 0.00000E+00
 1.20000E+01 3.84404E-06 3.66888E-09 0.00000E+00
 1.30000E+01 2.70289E-05 1.87683E-07 0.00000E+00
 1.40000E+01 1.78705E-04 2.56667E-06 0.00000E+00
 1.50000E+01 2.03541E-03 2.22877E-03 9.99995E-01
 1.60000E+01 6.68091E-03 8.71240E-03 9.99993E-01
 1.70000E+01 1.93106E-02 2.87461E-02 9.99991E-01
 1.80000E+01 4.98352E-02 8.48871E-02 9.99990E-01
 1.90000E+01 1.16528E-01 2.15315E-01 9.99989E-01
 2.00000E+01 2.51705E-01 5.14103E-01 9.99989E-01
 2.20000E+01 8.76752E-01 2.22741E+00 9.99991E-01
 2.40000E+01 2.19351E+00 6.88077E+00 9.99991E-01
 2.60000E+01 3.98247E+00 1.50112E+01 9.99991E-01
 2.80000E+01 4.90526E+00 2.15670E+01 9.99989E-01
 3.00000E+01 5.25111E+00 2.56694E+01 9.99983E-01
