# n + 208Pb   : (n,nt)            Total
# Q-value    =-1.28777E+01
# E-threshold= 1.29401E+01
# # energies = 46
#    E         xs       gamma xs  xs/res.prod.xs
 1.000E+00 0.00000E+00 0.00000E+00 0.00000E+00
 1.200E+00 0.00000E+00 0.00000E+00 0.00000E+00
 1.400E+00 0.00000E+00 0.00000E+00 0.00000E+00
 1.600E+00 0.00000E+00 0.00000E+00 0.00000E+00
 1.800E+00 0.00000E+00 0.00000E+00 0.00000E+00
 2.000E+00 0.00000E+00 0.00000E+00 0.00000E+00
 2.200E+00 0.00000E+00 0.00000E+00 0.00000E+00
 2.400E+00 0.00000E+00 0.00000E+00 0.00000E+00
 2.600E+00 0.00000E+00 0.00000E+00 0.00000E+00
 2.800E+00 0.00000E+00 0.00000E+00 0.00000E+00
 3.000E+00 0.00000E+00 0.00000E+00 0.00000E+00
 3.200E+00 0.00000E+00 0.00000E+00 0.00000E+00
 3.400E+00 0.00000E+00 0.00000E+00 0.00000E+00
 3.600E+00 0.00000E+00 0.00000E+00 0.00000E+00
 3.800E+00 0.00000E+00 0.00000E+00 0.00000E+00
 4.000E+00 0.00000E+00 0.00000E+00 0.00000E+00
 4.200E+00 0.00000E+00 0.00000E+00 0.00000E+00
 4.400E+00 0.00000E+00 0.00000E+00 0.00000E+00
 4.600E+00 0.00000E+00 0.00000E+00 0.00000E+00
 4.800E+00 0.00000E+00 0.00000E+00 0.00000E+00
 5.000E+00 0.00000E+00 0.00000E+00 0.00000E+00
 5.500E+00 0.00000E+00 0.00000E+00 0.00000E+00
 6.000E+00 0.00000E+00 0.00000E+00 0.00000E+00
 6.500E+00 0.00000E+00 0.00000E+00 0.00000E+00
 7.000E+00 0.00000E+00 0.00000E+00 0.00000E+00
 7.500E+00 0.00000E+00 0.00000E+00 0.00000E+00
 8.000E+00 0.00000E+00 0.00000E+00 0.00000E+00
 8.500E+00 0.00000E+00 0.00000E+00 0.00000E+00
 9.000E+00 0.00000E+00 0.00000E+00 0.00000E+00
 9.500E+00 0.00000E+00 0.00000E+00 0.00000E+00
 1.000E+01 0.00000E+00 0.00000E+00 0.00000E+00
 1.100E+01 0.00000E+00 0.00000E+00 0.00000E+00
 1.200E+01 0.00000E+00 0.00000E+00 0.00000E+00
 1.300E+01 0.00000E+00 0.00000E+00 0.00000E+00
 1.400E+01 0.00000E+00 0.00000E+00 0.00000E+00
 1.500E+01 0.00000E+00 0.00000E+00 0.00000E+00
 1.600E+01 0.00000E+00 0.00000E+00 0.00000E+00
 1.700E+01 0.00000E+00 0.00000E+00 0.00000E+00
 1.800E+01 0.00000E+00 0.00000E+00 0.00000E+00
 1.900E+01 2.31128E-06 1.04052E-09 0.00000E+00
 2.000E+01 4.27201E-05 1.54220E-07 0.00000E+00
 2.200E+01 8.64710E-03 9.38931E-03 9.99984E-01
 2.400E+01 1.44201E-01 2.56315E-01 9.99975E-01
 2.600E+01 7.26511E-01 1.93502E+00 9.99836E-01
 2.800E+01 1.79569E+00 6.03516E+00 9.95644E-01
 3.000E+01 3.17982E+00 1.25502E+01 9.42636E-01
