# n + 208Pb   : (n,na)            Total
# Q-value    = 5.16636E-01
# E-threshold= 0.00000E+00
# # energies =    46
#     E          xs       gamma xs  xs/res.prod.xs
 1.00000E+00 1.00000E-07 1.00000E-07 0.00000E+00
 1.20000E+00 1.00000E-07 1.00000E-07 0.00000E+00
 1.40000E+00 1.00000E-07 1.00000E-07 0.00000E+00
 1.60000E+00 1.00000E-07 1.00000E-07 0.00000E+00
 1.80000E+00 1.00000E-07 1.00000E-07 0.00000E+00
 2.00000E+00 1.00000E-07 1.00000E-07 0.00000E+00
 2.20000E+00 1.00000E-07 1.00000E-07 0.00000E+00
 2.40000E+00 1.00000E-07 1.00000E-07 0.00000E+00
 2.60000E+00 1.00000E-07 1.00000E-07 0.00000E+00
 2.80000E+00 1.00000E-07 1.00000E-07 0.00000E+00
 3.00000E+00 1.00000E-07 1.00000E-07 0.00000E+00
 3.20000E+00 1.00000E-07 1.00000E-07 0.00000E+00
 3.40000E+00 1.00000E-07 1.00000E-07 0.00000E+00
 3.60000E+00 1.00000E-07 1.00000E-07 0.00000E+00
 3.80000E+00 1.00000E-07 1.00000E-07 0.00000E+00
 4.00000E+00 1.00000E-07 1.00000E-07 0.00000E+00
 4.20000E+00 1.00000E-07 1.00000E-07 0.00000E+00
 4.40000E+00 1.00000E-07 1.00000E-07 0.00000E+00
 4.60000E+00 1.00000E-07 1.00000E-07 0.00000E+00
 4.80000E+00 1.00000E-07 1.00000E-07 0.00000E+00
 5.00000E+00 1.00000E-07 1.00000E-07 0.00000E+00
 5.50000E+00 1.00000E-07 1.00000E-07 0.00000E+00
 6.00000E+00 1.00000E-07 1.00000E-07 0.00000E+00
 6.50000E+00 1.00000E-07 1.00000E-07 0.00000E+00
 7.00000E+00 1.00000E-07 1.00000E-07 0.00000E+00
 7.50000E+00 1.00000E-07 1.00000E-07 0.00000E+00
 8.00000E+00 1.00000E-07 1.00000E-07 0.00000E+00
 8.50000E+00 1.00000E-07 1.00000E-07 0.00000E+00
 9.00000E+00 1.00000E-07 1.00000E-07 0.00000E+00
 9.50000E+00 1.00000E-07 1.00000E-07 0.00000E+00
 1.00000E+01 1.00000E-07 1.00000E-07 0.00000E+00
 1.10000E+01 1.00000E-07 1.00000E-07 0.00000E+00
 1.20000E+01 3.84379E-06 3.66858E-09 0.00000E+00
 1.30000E+01 2.70272E-05 1.87669E-07 0.00000E+00
 1.40000E+01 1.78694E-04 2.56648E-06 0.00000E+00
 1.50000E+01 2.03531E-03 2.22865E-03 9.99995E-01
 1.60000E+01 6.68074E-03 8.71215E-03 9.99993E-01
 1.70000E+01 1.93109E-02 2.87466E-02 9.99991E-01
 1.80000E+01 4.98386E-02 8.48936E-02 9.99990E-01
 1.90000E+01 1.16542E-01 2.15346E-01 9.99989E-01
 2.00000E+01 2.51746E-01 5.14213E-01 9.99989E-01
 2.20000E+01 8.76945E-01 2.22812E+00 9.99990E-01
 2.40000E+01 2.19407E+00 6.88337E+00 9.99991E-01
 2.60000E+01 3.98361E+00 1.50175E+01 9.99991E-01
 2.80000E+01 4.90678E+00 2.15765E+01 9.99989E-01
 3.00000E+01 5.25246E+00 2.56788E+01 9.99983E-01
