# n + 208Pb   : (n,2n)            Total
# Q-value    =-7.36782E+00
# E-threshold= 7.40355E+00
# # energies = 46
#    E         xs       gamma xs  xs/res.prod.xs
 1.000E+00 0.00000E+00 0.00000E+00 0.00000E+00
 1.200E+00 0.00000E+00 0.00000E+00 0.00000E+00
 1.400E+00 0.00000E+00 0.00000E+00 0.00000E+00
 1.600E+00 0.00000E+00 0.00000E+00 0.00000E+00
 1.800E+00 0.00000E+00 0.00000E+00 0.00000E+00
 2.000E+00 0.00000E+00 0.00000E+00 0.00000E+00
 2.200E+00 0.00000E+00 0.00000E+00 0.00000E+00
 2.400E+00 0.00000E+00 0.00000E+00 0.00000E+00
 2.600E+00 0.00000E+00 0.00000E+00 0.00000E+00
 2.800E+00 0.00000E+00 0.00000E+00 0.00000E+00
 3.000E+00 0.00000E+00 0.00000E+00 0.00000E+00
 3.200E+00 0.00000E+00 0.00000E+00 0.00000E+00
 3.400E+00 0.00000E+00 0.00000E+00 0.00000E+00
 3.600E+00 0.00000E+00 0.00000E+00 0.00000E+00
 3.800E+00 0.00000E+00 0.00000E+00 0.00000E+00
 4.000E+00 0.00000E+00 0.00000E+00 0.00000E+00
 4.200E+00 0.00000E+00 0.00000E+00 0.00000E+00
 4.400E+00 0.00000E+00 0.00000E+00 0.00000E+00
 4.600E+00 0.00000E+00 0.00000E+00 0.00000E+00
 4.800E+00 0.00000E+00 0.00000E+00 0.00000E+00
 5.000E+00 0.00000E+00 0.00000E+00 0.00000E+00
 5.500E+00 0.00000E+00 0.00000E+00 0.00000E+00
 6.000E+00 0.00000E+00 0.00000E+00 0.00000E+00
 6.500E+00 0.00000E+00 0.00000E+00 0.00000E+00
 7.000E+00 0.00000E+00 0.00000E+00 0.00000E+00
 7.500E+00 6.09497E+00 1.69451E-05 1.00000E+00
 8.000E+00 1.34427E+02 4.93999E-01 1.00000E+00
 8.500E+00 3.95844E+02 1.12923E+02 9.99999E-01
 9.000E+00 7.29818E+02 3.81020E+02 9.99997E-01
 9.500E+00 1.06747E+03 7.54902E+02 9.99994E-01
 1.000E+01 1.38096E+03 1.19377E+03 9.99989E-01
 1.100E+01 1.81555E+03 2.11377E+03 9.99976E-01
 1.200E+01 2.03301E+03 3.14637E+03 9.99959E-01
 1.300E+01 2.13774E+03 4.27737E+03 9.99941E-01
 1.400E+01 2.19379E+03 5.38422E+03 9.99923E-01
 1.500E+01 2.21506E+03 6.31935E+03 9.99904E-01
 1.600E+01 2.14341E+03 6.85645E+03 9.99883E-01
 1.700E+01 1.92671E+03 6.70707E+03 9.99850E-01
 1.800E+01 1.59089E+03 5.85173E+03 9.99786E-01
 1.900E+01 1.23281E+03 4.63320E+03 9.99639E-01
 2.000E+01 9.36076E+02 3.49659E+03 9.99320E-01
 2.200E+01 5.96121E+02 2.08346E+03 9.97738E-01
 2.400E+01 4.63162E+02 1.54240E+03 9.95749E-01
 2.600E+01 3.99468E+02 1.31570E+03 9.94420E-01
 2.800E+01 3.52758E+02 1.16642E+03 9.93901E-01
 3.000E+01 3.21671E+02 1.06617E+03 9.94574E-01
