# n + 208Pb   : (n,2n)            Total
# Q-value    =-7.36782E+00
# E-threshold= 7.40355E+00
# # energies = 46
#    E         xs       gamma xs  xs/res.prod.xs
 1.000E+00 0.00000E+00 0.00000E+00 0.00000E+00
 1.200E+00 0.00000E+00 0.00000E+00 0.00000E+00
 1.400E+00 0.00000E+00 0.00000E+00 0.00000E+00
 1.600E+00 0.00000E+00 0.00000E+00 0.00000E+00
 1.800E+00 0.00000E+00 0.00000E+00 0.00000E+00
 2.000E+00 0.00000E+00 0.00000E+00 0.00000E+00
 2.200E+00 0.00000E+00 0.00000E+00 0.00000E+00
 2.400E+00 0.00000E+00 0.00000E+00 0.00000E+00
 2.600E+00 0.00000E+00 0.00000E+00 0.00000E+00
 2.800E+00 0.00000E+00 0.00000E+00 0.00000E+00
 3.000E+00 0.00000E+00 0.00000E+00 0.00000E+00
 3.200E+00 0.00000E+00 0.00000E+00 0.00000E+00
 3.400E+00 0.00000E+00 0.00000E+00 0.00000E+00
 3.600E+00 0.00000E+00 0.00000E+00 0.00000E+00
 3.800E+00 0.00000E+00 0.00000E+00 0.00000E+00
 4.000E+00 0.00000E+00 0.00000E+00 0.00000E+00
 4.200E+00 0.00000E+00 0.00000E+00 0.00000E+00
 4.400E+00 0.00000E+00 0.00000E+00 0.00000E+00
 4.600E+00 0.00000E+00 0.00000E+00 0.00000E+00
 4.800E+00 0.00000E+00 0.00000E+00 0.00000E+00
 5.000E+00 0.00000E+00 0.00000E+00 0.00000E+00
 5.500E+00 0.00000E+00 0.00000E+00 0.00000E+00
 6.000E+00 0.00000E+00 0.00000E+00 0.00000E+00
 6.500E+00 0.00000E+00 0.00000E+00 0.00000E+00
 7.000E+00 0.00000E+00 0.00000E+00 0.00000E+00
 7.500E+00 7.73027E+00 3.71673E-05 1.00000E+00
 8.000E+00 1.57304E+02 6.79036E-01 1.00000E+00
 8.500E+00 4.44203E+02 1.35601E+02 9.99999E-01
 9.000E+00 7.86441E+02 4.30695E+02 9.99997E-01
 9.500E+00 1.12432E+03 8.34963E+02 9.99995E-01
 1.000E+01 1.42889E+03 1.30247E+03 9.99991E-01
 1.100E+01 1.83724E+03 2.25260E+03 9.99982E-01
 1.200E+01 2.03903E+03 3.52424E+03 9.99971E-01
 1.300E+01 2.13650E+03 4.93139E+03 9.99959E-01
 1.400E+01 2.19106E+03 6.21162E+03 9.99947E-01
 1.500E+01 2.21307E+03 7.25675E+03 9.99933E-01
 1.600E+01 2.15518E+03 7.90534E+03 9.99916E-01
 1.700E+01 1.97179E+03 7.88215E+03 9.99890E-01
 1.800E+01 1.67173E+03 7.09274E+03 9.99839E-01
 1.900E+01 1.32620E+03 5.79481E+03 9.99725E-01
 2.000E+01 1.01785E+03 4.45699E+03 9.99466E-01
 2.200E+01 6.33455E+02 2.63514E+03 9.98107E-01
 2.400E+01 4.76837E+02 1.88980E+03 9.96223E-01
 2.600E+01 4.06777E+02 1.59417E+03 9.94886E-01
 2.800E+01 3.58672E+02 1.41042E+03 9.94270E-01
 3.000E+01 3.27496E+02 1.29887E+03 9.94718E-01
