# n + 208Pb   : (n,2n)            Total
# Q-value    =-7.36787E+00
# E-threshold= 7.40361E+00
# # energies = 46
#    E         xs       gamma xs  xs/res.prod.xs
 1.000E+00 0.00000E+00 0.00000E+00 0.00000E+00
 1.200E+00 0.00000E+00 0.00000E+00 0.00000E+00
 1.400E+00 0.00000E+00 0.00000E+00 0.00000E+00
 1.600E+00 0.00000E+00 0.00000E+00 0.00000E+00
 1.800E+00 0.00000E+00 0.00000E+00 0.00000E+00
 2.000E+00 0.00000E+00 0.00000E+00 0.00000E+00
 2.200E+00 0.00000E+00 0.00000E+00 0.00000E+00
 2.400E+00 0.00000E+00 0.00000E+00 0.00000E+00
 2.600E+00 0.00000E+00 0.00000E+00 0.00000E+00
 2.800E+00 0.00000E+00 0.00000E+00 0.00000E+00
 3.000E+00 0.00000E+00 0.00000E+00 0.00000E+00
 3.200E+00 0.00000E+00 0.00000E+00 0.00000E+00
 3.400E+00 0.00000E+00 0.00000E+00 0.00000E+00
 3.600E+00 0.00000E+00 0.00000E+00 0.00000E+00
 3.800E+00 0.00000E+00 0.00000E+00 0.00000E+00
 4.000E+00 0.00000E+00 0.00000E+00 0.00000E+00
 4.200E+00 0.00000E+00 0.00000E+00 0.00000E+00
 4.400E+00 0.00000E+00 0.00000E+00 0.00000E+00
 4.600E+00 0.00000E+00 0.00000E+00 0.00000E+00
 4.800E+00 0.00000E+00 0.00000E+00 0.00000E+00
 5.000E+00 0.00000E+00 0.00000E+00 0.00000E+00
 5.500E+00 0.00000E+00 0.00000E+00 0.00000E+00
 6.000E+00 0.00000E+00 0.00000E+00 0.00000E+00
 6.500E+00 0.00000E+00 0.00000E+00 0.00000E+00
 7.000E+00 0.00000E+00 0.00000E+00 0.00000E+00
 7.500E+00 3.94132E+00 6.48664E-06 1.00000E+00
 8.000E+00 9.17517E+01 3.25823E-01 9.99999E-01
 8.500E+00 2.87668E+02 8.06503E+01 9.99994E-01
 9.000E+00 5.60014E+02 2.87499E+02 9.99981E-01
 9.500E+00 8.62445E+02 6.01394E+02 9.99953E-01
 1.000E+01 1.16688E+03 9.98324E+02 9.99902E-01
 1.100E+01 1.64545E+03 1.89480E+03 9.99691E-01
 1.200E+01 1.92802E+03 2.94077E+03 9.99286E-01
 1.300E+01 2.07798E+03 4.13848E+03 9.98651E-01
 1.400E+01 2.15980E+03 5.36824E+03 9.97819E-01
 1.500E+01 2.19652E+03 6.43842E+03 9.96856E-01
 1.600E+01 2.16040E+03 7.17256E+03 9.95779E-01
 1.700E+01 2.00686E+03 7.32033E+03 9.94466E-01
 1.800E+01 1.73628E+03 6.77142E+03 9.92545E-01
 1.900E+01 1.40680E+03 5.69447E+03 9.89703E-01
 2.000E+01 1.09703E+03 4.48720E+03 9.85769E-01
 2.200E+01 6.83017E+02 2.68536E+03 9.76276E-01
 2.400E+01 5.03843E+02 1.88746E+03 9.70902E-01
 2.600E+01 4.21763E+02 1.54911E+03 9.71456E-01
 2.800E+01 3.70493E+02 1.36553E+03 9.75329E-01
 3.000E+01 3.37282E+02 1.24989E+03 9.81011E-01
