# n + 208Pb   : (n,2n)            Total
# Q-value    =-7.36787E+00
# E-threshold= 7.40361E+00
# # energies = 46
#    E         xs       gamma xs  xs/res.prod.xs
 1.000E+00 0.00000E+00 0.00000E+00 0.00000E+00
 1.200E+00 0.00000E+00 0.00000E+00 0.00000E+00
 1.400E+00 0.00000E+00 0.00000E+00 0.00000E+00
 1.600E+00 0.00000E+00 0.00000E+00 0.00000E+00
 1.800E+00 0.00000E+00 0.00000E+00 0.00000E+00
 2.000E+00 0.00000E+00 0.00000E+00 0.00000E+00
 2.200E+00 0.00000E+00 0.00000E+00 0.00000E+00
 2.400E+00 0.00000E+00 0.00000E+00 0.00000E+00
 2.600E+00 0.00000E+00 0.00000E+00 0.00000E+00
 2.800E+00 0.00000E+00 0.00000E+00 0.00000E+00
 3.000E+00 0.00000E+00 0.00000E+00 0.00000E+00
 3.200E+00 0.00000E+00 0.00000E+00 0.00000E+00
 3.400E+00 0.00000E+00 0.00000E+00 0.00000E+00
 3.600E+00 0.00000E+00 0.00000E+00 0.00000E+00
 3.800E+00 0.00000E+00 0.00000E+00 0.00000E+00
 4.000E+00 0.00000E+00 0.00000E+00 0.00000E+00
 4.200E+00 0.00000E+00 0.00000E+00 0.00000E+00
 4.400E+00 0.00000E+00 0.00000E+00 0.00000E+00
 4.600E+00 0.00000E+00 0.00000E+00 0.00000E+00
 4.800E+00 0.00000E+00 0.00000E+00 0.00000E+00
 5.000E+00 0.00000E+00 0.00000E+00 0.00000E+00
 5.500E+00 0.00000E+00 0.00000E+00 0.00000E+00
 6.000E+00 0.00000E+00 0.00000E+00 0.00000E+00
 6.500E+00 0.00000E+00 0.00000E+00 0.00000E+00
 7.000E+00 0.00000E+00 0.00000E+00 0.00000E+00
 7.500E+00 4.35183E+00 9.06200E-06 1.00000E+00
 8.000E+00 1.04251E+02 3.36804E-01 9.99999E-01
 8.500E+00 3.16952E+02 8.56460E+01 9.99994E-01
 9.000E+00 6.05529E+02 3.04575E+02 9.99980E-01
 9.500E+00 9.12243E+02 6.26680E+02 9.99951E-01
 1.000E+01 1.21860E+03 1.02627E+03 9.99896E-01
 1.100E+01 1.68636E+03 1.92052E+03 9.99673E-01
 1.200E+01 1.95236E+03 2.93767E+03 9.99255E-01
 1.300E+01 2.09345E+03 4.07687E+03 9.98601E-01
 1.400E+01 2.17000E+03 5.24070E+03 9.97752E-01
 1.500E+01 2.20304E+03 6.26024E+03 9.96777E-01
 1.600E+01 2.15480E+03 6.93251E+03 9.95683E-01
 1.700E+01 1.98119E+03 6.99239E+03 9.94310E-01
 1.800E+01 1.69144E+03 6.36435E+03 9.92272E-01
 1.900E+01 1.35370E+03 5.26317E+03 9.89259E-01
 2.000E+01 1.04968E+03 4.10241E+03 9.85164E-01
 2.200E+01 6.58997E+02 2.45290E+03 9.77157E-01
 2.400E+01 4.93583E+02 1.74451E+03 9.73541E-01
 2.600E+01 4.18896E+02 1.45086E+03 9.74544E-01
 2.800E+01 3.70965E+02 1.28606E+03 9.77750E-01
 3.000E+01 3.38793E+02 1.17901E+03 9.82600E-01
