# n + 208Pb   : (n,2n)            Total
# Q-value    =-7.36787E+00
# E-threshold= 7.40361E+00
# # energies = 46
#    E         xs       gamma xs  xs/res.prod.xs
 1.000E+00 0.00000E+00 0.00000E+00 0.00000E+00
 1.200E+00 0.00000E+00 0.00000E+00 0.00000E+00
 1.400E+00 0.00000E+00 0.00000E+00 0.00000E+00
 1.600E+00 0.00000E+00 0.00000E+00 0.00000E+00
 1.800E+00 0.00000E+00 0.00000E+00 0.00000E+00
 2.000E+00 0.00000E+00 0.00000E+00 0.00000E+00
 2.200E+00 0.00000E+00 0.00000E+00 0.00000E+00
 2.400E+00 0.00000E+00 0.00000E+00 0.00000E+00
 2.600E+00 0.00000E+00 0.00000E+00 0.00000E+00
 2.800E+00 0.00000E+00 0.00000E+00 0.00000E+00
 3.000E+00 0.00000E+00 0.00000E+00 0.00000E+00
 3.200E+00 0.00000E+00 0.00000E+00 0.00000E+00
 3.400E+00 0.00000E+00 0.00000E+00 0.00000E+00
 3.600E+00 0.00000E+00 0.00000E+00 0.00000E+00
 3.800E+00 0.00000E+00 0.00000E+00 0.00000E+00
 4.000E+00 0.00000E+00 0.00000E+00 0.00000E+00
 4.200E+00 0.00000E+00 0.00000E+00 0.00000E+00
 4.400E+00 0.00000E+00 0.00000E+00 0.00000E+00
 4.600E+00 0.00000E+00 0.00000E+00 0.00000E+00
 4.800E+00 0.00000E+00 0.00000E+00 0.00000E+00
 5.000E+00 0.00000E+00 0.00000E+00 0.00000E+00
 5.500E+00 0.00000E+00 0.00000E+00 0.00000E+00
 6.000E+00 0.00000E+00 0.00000E+00 0.00000E+00
 6.500E+00 0.00000E+00 0.00000E+00 0.00000E+00
 7.000E+00 0.00000E+00 0.00000E+00 0.00000E+00
 7.500E+00 4.33673E+00 9.03061E-06 1.00000E+00
 8.000E+00 1.03862E+02 3.35553E-01 9.99999E-01
 8.500E+00 3.15731E+02 8.53163E+01 9.99994E-01
 9.000E+00 6.03159E+02 3.03384E+02 9.99980E-01
 9.500E+00 9.08654E+02 6.24214E+02 9.99951E-01
 1.000E+01 1.21379E+03 1.02223E+03 9.99896E-01
 1.100E+01 1.67994E+03 1.91321E+03 9.99673E-01
 1.200E+01 1.94524E+03 2.92694E+03 9.99255E-01
 1.300E+01 2.08602E+03 4.06239E+03 9.98601E-01
 1.400E+01 2.16248E+03 5.22251E+03 9.97752E-01
 1.500E+01 2.19568E+03 6.23929E+03 9.96777E-01
 1.600E+01 2.14792E+03 6.91035E+03 9.95683E-01
 1.700E+01 1.97504E+03 6.97071E+03 9.94309E-01
 1.800E+01 1.68629E+03 6.34509E+03 9.92271E-01
 1.900E+01 1.34974E+03 5.24787E+03 9.89259E-01
 2.000E+01 1.04676E+03 4.09105E+03 9.85165E-01
 2.200E+01 6.57331E+02 2.44679E+03 9.77160E-01
 2.400E+01 4.92387E+02 1.74040E+03 9.73541E-01
 2.600E+01 4.17999E+02 1.44788E+03 9.74550E-01
 2.800E+01 3.70101E+02 1.28320E+03 9.77749E-01
 3.000E+01 3.37982E+02 1.17632E+03 9.82597E-01
