# n + 208Pb   : (n,2na)           Total
# Q-value    =-6.97552E+00
# E-threshold= 7.00935E+00
# # energies = 46
#    E         xs       gamma xs  xs/res.prod.xs
 1.000E+00 0.00000E+00 0.00000E+00 0.00000E+00
 1.200E+00 0.00000E+00 0.00000E+00 0.00000E+00
 1.400E+00 0.00000E+00 0.00000E+00 0.00000E+00
 1.600E+00 0.00000E+00 0.00000E+00 0.00000E+00
 1.800E+00 0.00000E+00 0.00000E+00 0.00000E+00
 2.000E+00 0.00000E+00 0.00000E+00 0.00000E+00
 2.200E+00 0.00000E+00 0.00000E+00 0.00000E+00
 2.400E+00 0.00000E+00 0.00000E+00 0.00000E+00
 2.600E+00 0.00000E+00 0.00000E+00 0.00000E+00
 2.800E+00 0.00000E+00 0.00000E+00 0.00000E+00
 3.000E+00 0.00000E+00 0.00000E+00 0.00000E+00
 3.200E+00 0.00000E+00 0.00000E+00 0.00000E+00
 3.400E+00 0.00000E+00 0.00000E+00 0.00000E+00
 3.600E+00 0.00000E+00 0.00000E+00 0.00000E+00
 3.800E+00 0.00000E+00 0.00000E+00 0.00000E+00
 4.000E+00 0.00000E+00 0.00000E+00 0.00000E+00
 4.200E+00 0.00000E+00 0.00000E+00 0.00000E+00
 4.400E+00 0.00000E+00 0.00000E+00 0.00000E+00
 4.600E+00 0.00000E+00 0.00000E+00 0.00000E+00
 4.800E+00 0.00000E+00 0.00000E+00 0.00000E+00
 5.000E+00 0.00000E+00 0.00000E+00 0.00000E+00
 5.500E+00 0.00000E+00 0.00000E+00 0.00000E+00
 6.000E+00 0.00000E+00 0.00000E+00 0.00000E+00
 6.500E+00 0.00000E+00 0.00000E+00 0.00000E+00
 7.000E+00 0.00000E+00 0.00000E+00 0.00000E+00
 7.500E+00 0.00000E+00 0.00000E+00 0.00000E+00
 8.000E+00 0.00000E+00 0.00000E+00 0.00000E+00
 8.500E+00 0.00000E+00 0.00000E+00 0.00000E+00
 9.000E+00 0.00000E+00 0.00000E+00 0.00000E+00
 9.500E+00 0.00000E+00 0.00000E+00 0.00000E+00
 1.000E+01 0.00000E+00 0.00000E+00 0.00000E+00
 1.100E+01 0.00000E+00 0.00000E+00 0.00000E+00
 1.200E+01 0.00000E+00 0.00000E+00 0.00000E+00
 1.300E+01 0.00000E+00 0.00000E+00 0.00000E+00
 1.400E+01 0.00000E+00 0.00000E+00 0.00000E+00
 1.500E+01 0.00000E+00 0.00000E+00 0.00000E+00
 1.600E+01 0.00000E+00 0.00000E+00 0.00000E+00
 1.700E+01 0.00000E+00 0.00000E+00 0.00000E+00
 1.800E+01 1.45234E-05 0.00000E+00 0.00000E+00
 1.900E+01 4.42525E-04 3.45884E-06 0.00000E+00
 2.000E+01 4.10926E-03 4.57701E-03 9.99931E-01
 2.200E+01 5.57568E-02 8.90659E-02 9.99792E-01
 2.400E+01 3.33402E-01 6.75861E-01 9.99575E-01
 2.600E+01 1.23703E+00 3.14448E+00 9.99335E-01
 2.800E+01 3.46301E+00 1.04039E+01 9.98984E-01
 3.000E+01 7.20842E+00 2.63844E+01 9.98499E-01
