# n + 208Pb   : (n,2np)           Total
# Q-value    =-1.48557E+01
# E-threshold= 1.49277E+01
# # energies = 46
#    E         xs       gamma xs  xs/res.prod.xs
 1.000E+00 0.00000E+00 0.00000E+00 0.00000E+00
 1.200E+00 0.00000E+00 0.00000E+00 0.00000E+00
 1.400E+00 0.00000E+00 0.00000E+00 0.00000E+00
 1.600E+00 0.00000E+00 0.00000E+00 0.00000E+00
 1.800E+00 0.00000E+00 0.00000E+00 0.00000E+00
 2.000E+00 0.00000E+00 0.00000E+00 0.00000E+00
 2.200E+00 0.00000E+00 0.00000E+00 0.00000E+00
 2.400E+00 0.00000E+00 0.00000E+00 0.00000E+00
 2.600E+00 0.00000E+00 0.00000E+00 0.00000E+00
 2.800E+00 0.00000E+00 0.00000E+00 0.00000E+00
 3.000E+00 0.00000E+00 0.00000E+00 0.00000E+00
 3.200E+00 0.00000E+00 0.00000E+00 0.00000E+00
 3.400E+00 0.00000E+00 0.00000E+00 0.00000E+00
 3.600E+00 0.00000E+00 0.00000E+00 0.00000E+00
 3.800E+00 0.00000E+00 0.00000E+00 0.00000E+00
 4.000E+00 0.00000E+00 0.00000E+00 0.00000E+00
 4.200E+00 0.00000E+00 0.00000E+00 0.00000E+00
 4.400E+00 0.00000E+00 0.00000E+00 0.00000E+00
 4.600E+00 0.00000E+00 0.00000E+00 0.00000E+00
 4.800E+00 0.00000E+00 0.00000E+00 0.00000E+00
 5.000E+00 0.00000E+00 0.00000E+00 0.00000E+00
 5.500E+00 0.00000E+00 0.00000E+00 0.00000E+00
 6.000E+00 0.00000E+00 0.00000E+00 0.00000E+00
 6.500E+00 0.00000E+00 0.00000E+00 0.00000E+00
 7.000E+00 0.00000E+00 0.00000E+00 0.00000E+00
 7.500E+00 0.00000E+00 0.00000E+00 0.00000E+00
 8.000E+00 0.00000E+00 0.00000E+00 0.00000E+00
 8.500E+00 0.00000E+00 0.00000E+00 0.00000E+00
 9.000E+00 0.00000E+00 0.00000E+00 0.00000E+00
 9.500E+00 0.00000E+00 0.00000E+00 0.00000E+00
 1.000E+01 0.00000E+00 0.00000E+00 0.00000E+00
 1.100E+01 0.00000E+00 0.00000E+00 0.00000E+00
 1.200E+01 0.00000E+00 0.00000E+00 0.00000E+00
 1.300E+01 0.00000E+00 0.00000E+00 0.00000E+00
 1.400E+01 0.00000E+00 0.00000E+00 0.00000E+00
 1.500E+01 0.00000E+00 0.00000E+00 0.00000E+00
 1.600E+01 0.00000E+00 0.00000E+00 0.00000E+00
 1.700E+01 0.00000E+00 0.00000E+00 0.00000E+00
 1.800E+01 0.00000E+00 0.00000E+00 0.00000E+00
 1.900E+01 2.49181E-06 9.09227E-07 5.94069E-06
 2.000E+01 2.13344E-04 1.88092E-04 2.78871E-04
 2.200E+01 2.73385E-02 4.41181E-02 1.51829E-02
 2.400E+01 4.33893E-01 9.15428E-01 1.19635E-01
 2.600E+01 2.30535E+00 5.99348E+00 3.18109E-01
 2.800E+01 7.21534E+00 2.13435E+01 5.10498E-01
 3.000E+01 1.64876E+01 5.44353E+01 6.46745E-01
