# n + 208Pb   : (n,3n)            Total
# Q-value    =-1.41057E+01
# E-threshold= 1.41741E+01
# # energies = 46
#    E         xs       gamma xs  xs/res.prod.xs
 1.000E+00 0.00000E+00 0.00000E+00 0.00000E+00
 1.200E+00 0.00000E+00 0.00000E+00 0.00000E+00
 1.400E+00 0.00000E+00 0.00000E+00 0.00000E+00
 1.600E+00 0.00000E+00 0.00000E+00 0.00000E+00
 1.800E+00 0.00000E+00 0.00000E+00 0.00000E+00
 2.000E+00 0.00000E+00 0.00000E+00 0.00000E+00
 2.200E+00 0.00000E+00 0.00000E+00 0.00000E+00
 2.400E+00 0.00000E+00 0.00000E+00 0.00000E+00
 2.600E+00 0.00000E+00 0.00000E+00 0.00000E+00
 2.800E+00 0.00000E+00 0.00000E+00 0.00000E+00
 3.000E+00 0.00000E+00 0.00000E+00 0.00000E+00
 3.200E+00 0.00000E+00 0.00000E+00 0.00000E+00
 3.400E+00 0.00000E+00 0.00000E+00 0.00000E+00
 3.600E+00 0.00000E+00 0.00000E+00 0.00000E+00
 3.800E+00 0.00000E+00 0.00000E+00 0.00000E+00
 4.000E+00 0.00000E+00 0.00000E+00 0.00000E+00
 4.200E+00 0.00000E+00 0.00000E+00 0.00000E+00
 4.400E+00 0.00000E+00 0.00000E+00 0.00000E+00
 4.600E+00 0.00000E+00 0.00000E+00 0.00000E+00
 4.800E+00 0.00000E+00 0.00000E+00 0.00000E+00
 5.000E+00 0.00000E+00 0.00000E+00 0.00000E+00
 5.500E+00 0.00000E+00 0.00000E+00 0.00000E+00
 6.000E+00 0.00000E+00 0.00000E+00 0.00000E+00
 6.500E+00 0.00000E+00 0.00000E+00 0.00000E+00
 7.000E+00 0.00000E+00 0.00000E+00 0.00000E+00
 7.500E+00 0.00000E+00 0.00000E+00 0.00000E+00
 8.000E+00 0.00000E+00 0.00000E+00 0.00000E+00
 8.500E+00 0.00000E+00 0.00000E+00 0.00000E+00
 9.000E+00 0.00000E+00 0.00000E+00 0.00000E+00
 9.500E+00 0.00000E+00 0.00000E+00 0.00000E+00
 1.000E+01 0.00000E+00 0.00000E+00 0.00000E+00
 1.100E+01 0.00000E+00 0.00000E+00 0.00000E+00
 1.200E+01 0.00000E+00 0.00000E+00 0.00000E+00
 1.300E+01 0.00000E+00 0.00000E+00 0.00000E+00
 1.400E+01 0.00000E+00 0.00000E+00 0.00000E+00
 1.500E+01 5.18604E+00 4.69427E-03 9.99995E-01
 1.600E+01 6.58803E+01 1.40760E+01 9.99954E-01
 1.700E+01 2.34717E+02 1.77020E+02 9.99836E-01
 1.800E+01 5.19523E+02 7.67313E+02 9.99605E-01
 1.900E+01 8.54256E+02 1.84523E+03 9.99209E-01
 2.000E+01 1.15818E+03 3.18450E+03 9.98592E-01
 2.200E+01 1.55912E+03 5.75978E+03 9.96797E-01
 2.400E+01 1.71348E+03 7.60665E+03 9.94493E-01
 2.600E+01 1.63591E+03 8.18006E+03 9.91599E-01
 2.800E+01 1.29382E+03 6.90252E+03 9.86534E-01
 3.000E+01 9.01599E+02 4.86986E+03 9.78011E-01
