# n + Pb208: Gamma-ray intensity - 207Pb: Level  6 --> Level  0 - gamma energy    2.662476
# E-initial  =   2.662476 E-final=   0.000000
# E-threshold= 1.00790E+01
# # energies =    67
#    E           xs
 1.00000E-11 0.00000E+00
 2.53000E-08 0.00000E+00
 2.00000E-07 0.00000E+00
 1.00000E-06 0.00000E+00
 1.00000E-03 0.00000E+00
 2.00000E-03 0.00000E+00
 5.00000E-03 0.00000E+00
 1.00000E-02 0.00000E+00
 2.00000E-02 0.00000E+00
 5.00000E-02 0.00000E+00
 1.00000E-01 0.00000E+00
 2.00000E-01 0.00000E+00
 3.00000E-01 0.00000E+00
 4.00000E-01 0.00000E+00
 5.00000E-01 0.00000E+00
 7.50000E-01 0.00000E+00
 1.00000E+00 0.00000E+00
 1.20000E+00 0.00000E+00
 1.40000E+00 0.00000E+00
 1.60000E+00 0.00000E+00
 1.80000E+00 0.00000E+00
 2.00000E+00 0.00000E+00
 2.20000E+00 0.00000E+00
 2.40000E+00 0.00000E+00
 2.60000E+00 0.00000E+00
 2.80000E+00 0.00000E+00
 3.00000E+00 0.00000E+00
 3.20000E+00 0.00000E+00
 3.40000E+00 0.00000E+00
 3.60000E+00 0.00000E+00
 3.80000E+00 0.00000E+00
 4.00000E+00 0.00000E+00
 4.20000E+00 0.00000E+00
 4.40000E+00 0.00000E+00
 4.60000E+00 0.00000E+00
 4.80000E+00 0.00000E+00
 5.00000E+00 0.00000E+00
 5.50000E+00 0.00000E+00
 6.00000E+00 0.00000E+00
 6.50000E+00 0.00000E+00
 7.00000E+00 0.00000E+00
 7.50000E+00 0.00000E+00
 8.00000E+00 0.00000E+00
 8.50000E+00 0.00000E+00
 9.00000E+00 0.00000E+00
 9.50000E+00 0.00000E+00
 1.00000E+01 0.00000E+00
 1.10000E+01 7.05207E-01
 1.20000E+01 2.40355E+00
 1.30000E+01 3.79895E+00
 1.40000E+01 4.41100E+00
 1.50000E+01 4.54769E+00
 1.60000E+01 4.38747E+00
 1.70000E+01 3.89543E+00
 1.80000E+01 3.20027E+00
 1.90000E+01 2.48882E+00
 2.00000E+01 1.89675E+00
 2.10000E+01 1.46602E+00
 2.20000E+01 1.18907E+00
 2.30000E+01 1.01282E+00
 2.40000E+01 9.04653E-01
 2.50000E+01 8.33813E-01
 2.60000E+01 7.81785E-01
 2.70000E+01 7.43967E-01
 2.80000E+01 7.12669E-01
 2.90000E+01 6.90372E-01
 3.00000E+01 6.63313E-01
