# n + Pb208: Gamma-ray intensity - 207Pb: Level  7 --> Level  0 - gamma energy    2.702000
# E-initial  =   2.702000 E-final=   0.000000
# E-threshold= 1.01187E+01
# # energies =    67
#    E           xs
 1.00000E-11 0.00000E+00
 2.53000E-08 0.00000E+00
 2.00000E-07 0.00000E+00
 1.00000E-06 0.00000E+00
 1.00000E-03 0.00000E+00
 2.00000E-03 0.00000E+00
 5.00000E-03 0.00000E+00
 1.00000E-02 0.00000E+00
 2.00000E-02 0.00000E+00
 5.00000E-02 0.00000E+00
 1.00000E-01 0.00000E+00
 2.00000E-01 0.00000E+00
 3.00000E-01 0.00000E+00
 4.00000E-01 0.00000E+00
 5.00000E-01 0.00000E+00
 7.50000E-01 0.00000E+00
 1.00000E+00 0.00000E+00
 1.20000E+00 0.00000E+00
 1.40000E+00 0.00000E+00
 1.60000E+00 0.00000E+00
 1.80000E+00 0.00000E+00
 2.00000E+00 0.00000E+00
 2.20000E+00 0.00000E+00
 2.40000E+00 0.00000E+00
 2.60000E+00 0.00000E+00
 2.80000E+00 0.00000E+00
 3.00000E+00 0.00000E+00
 3.20000E+00 0.00000E+00
 3.40000E+00 0.00000E+00
 3.60000E+00 0.00000E+00
 3.80000E+00 0.00000E+00
 4.00000E+00 0.00000E+00
 4.20000E+00 0.00000E+00
 4.40000E+00 0.00000E+00
 4.60000E+00 0.00000E+00
 4.80000E+00 0.00000E+00
 5.00000E+00 0.00000E+00
 5.50000E+00 0.00000E+00
 6.00000E+00 0.00000E+00
 6.50000E+00 0.00000E+00
 7.00000E+00 0.00000E+00
 7.50000E+00 0.00000E+00
 8.00000E+00 0.00000E+00
 8.50000E+00 0.00000E+00
 9.00000E+00 0.00000E+00
 9.50000E+00 0.00000E+00
 1.00000E+01 0.00000E+00
 1.10000E+01 3.70304E-05
 1.20000E+01 1.33416E-04
 1.30000E+01 2.13613E-04
 1.40000E+01 2.49163E-04
 1.50000E+01 2.57248E-04
 1.60000E+01 2.48627E-04
 1.70000E+01 2.21517E-04
 1.80000E+01 1.82929E-04
 1.90000E+01 1.43037E-04
 2.00000E+01 1.09438E-04
 2.10000E+01 8.47926E-05
 2.20000E+01 6.88306E-05
 2.30000E+01 5.86461E-05
 2.40000E+01 5.24101E-05
 2.50000E+01 4.83320E-05
 2.60000E+01 4.53496E-05
 2.70000E+01 4.31992E-05
 2.80000E+01 4.14243E-05
 2.90000E+01 4.01706E-05
 3.00000E+01 3.86392E-05
