# n + 209Bi: alpha    DDX spectrum
# E-incident =  63.000
# 
# # energies =211
# E-out    Total       Direct    Pre-equil.  Mult. preeq  Compound
  0.700 0.00000E+00 0.00000E+00 0.00000E+00 0.00000E+00 0.00000E+00
  0.800 0.00000E+00 0.00000E+00 0.00000E+00 0.00000E+00 0.00000E+00
  0.900 0.00000E+00 0.00000E+00 0.00000E+00 0.00000E+00 0.00000E+00
  1.000 0.00000E+00 0.00000E+00 0.00000E+00 0.00000E+00 0.00000E+00
  1.100 0.00000E+00 0.00000E+00 0.00000E+00 0.00000E+00 0.00000E+00
  1.200 0.00000E+00 0.00000E+00 0.00000E+00 0.00000E+00 0.00000E+00
  1.300 0.00000E+00 0.00000E+00 0.00000E+00 0.00000E+00 0.00000E+00
  1.400 0.00000E+00 0.00000E+00 0.00000E+00 0.00000E+00 0.00000E+00
  1.500 0.00000E+00 0.00000E+00 0.00000E+00 0.00000E+00 0.00000E+00
  1.600 0.00000E+00 0.00000E+00 0.00000E+00 0.00000E+00 0.00000E+00
  1.700 0.00000E+00 0.00000E+00 0.00000E+00 0.00000E+00 0.00000E+00
  1.800 0.00000E+00 0.00000E+00 0.00000E+00 0.00000E+00 0.00000E+00
  1.900 0.00000E+00 0.00000E+00 0.00000E+00 0.00000E+00 0.00000E+00
  2.000 0.00000E+00 0.00000E+00 0.00000E+00 0.00000E+00 0.00000E+00
  2.200 0.00000E+00 0.00000E+00 0.00000E+00 0.00000E+00 0.00000E+00
  2.400 0.00000E+00 0.00000E+00 0.00000E+00 0.00000E+00 0.00000E+00
  2.600 1.40130E-45 0.00000E+00 1.40130E-45 0.00000E+00 0.00000E+00
  2.800 1.01034E-42 0.00000E+00 1.01034E-42 0.00000E+00 0.00000E+00
  3.000 3.95994E-40 0.00000E+00 3.95994E-40 0.00000E+00 0.00000E+00
  3.200 4.41113E-37 0.00000E+00 4.41113E-37 0.00000E+00 0.00000E+00
  3.400 5.65321E-35 0.00000E+00 5.65321E-35 0.00000E+00 0.00000E+00
  3.600 4.60132E-33 0.00000E+00 4.60132E-33 0.00000E+00 0.00000E+00
  3.800 2.53960E-31 0.00000E+00 2.53960E-31 0.00000E+00 0.00000E+00
  4.000 9.98588E-30 0.00000E+00 9.98588E-30 0.00000E+00 0.00000E+00
  4.500 2.82502E-26 0.00000E+00 2.82502E-26 0.00000E+00 0.00000E+00
  5.000 1.97346E-23 0.00000E+00 1.97346E-23 0.00000E+00 0.00000E+00
  5.500 4.72340E-21 0.00000E+00 4.72340E-21 0.00000E+00 0.00000E+00
  6.000 4.87934E-19 0.00000E+00 4.87934E-19 0.00000E+00 0.00000E+00
  6.500 2.57692E-17 0.00000E+00 2.57692E-17 0.00000E+00 0.00000E+00
  7.000 7.90976E-16 0.00000E+00 7.90976E-16 0.00000E+00 0.00000E+00
  7.500 1.55814E-14 0.00000E+00 1.55814E-14 0.00000E+00 0.00000E+00
  8.000 1.00675E-10 0.00000E+00 2.13177E-13 0.00000E+00 1.00462E-10
  8.500 3.15787E-09 0.00000E+00 2.15814E-12 0.00000E+00 3.15572E-09
  9.000 6.73659E-06 0.00000E+00 1.70118E-11 0.00000E+00 6.73657E-06
  9.500 3.10560E-05 0.00000E+00 1.08804E-10 0.00000E+00 3.10559E-05
 10.000 2.14662E-04 0.00000E+00 5.83358E-10 0.00000E+00 2.14661E-04
 10.500 7.89788E-04 0.00000E+00 2.69098E-09 0.00000E+00 7.89785E-04
 11.000 2.21121E-03 0.00000E+00 1.09057E-08 0.00000E+00 2.21120E-03
 11.500 3.96751E-03 0.00000E+00 3.94865E-08 0.00000E+00 3.96747E-03
 12.000 5.65721E-03 0.00000E+00 1.29565E-07 0.00000E+00 5.65708E-03
 12.500 7.19419E-03 0.00000E+00 3.89906E-07 0.00000E+00 7.19380E-03
 13.000 8.15890E-03 0.00000E+00 1.08763E-06 0.00000E+00 8.15781E-03
 13.500 9.84581E-03 0.00000E+00 2.83842E-06 0.00000E+00 9.84297E-03
 14.000 1.19481E-02 0.00000E+00 6.98816E-06 0.00000E+00 1.19412E-02
 14.500 1.45055E-02 0.00000E+00 1.63489E-05 0.00000E+00 1.44891E-02
 15.000 1.82751E-02 0.00000E+00 3.65757E-05 0.00000E+00 1.82385E-02
 15.500 2.43370E-02 0.00000E+00 7.86649E-05 0.00000E+00 2.42583E-02
 16.000 3.18047E-02 0.00000E+00 1.63336E-04 0.00000E+00 3.16414E-02
 16.500 3.94487E-02 0.00000E+00 3.28415E-04 0.00000E+00 3.91203E-02
 17.000 4.89362E-02 0.00000E+00 6.40676E-04 0.00000E+00 4.82956E-02
 17.500 6.37808E-02 0.00000E+00 1.21375E-03 0.00000E+00 6.25671E-02
 18.000 8.29971E-02 0.00000E+00 2.23189E-03 0.00000E+00 8.07652E-02
 18.500 1.06019E-01 0.00000E+00 3.97522E-03 0.00000E+00 1.02044E-01
 19.000 1.40936E-01 0.00000E+00 6.83147E-03 0.00000E+00 1.34105E-01
 19.500 1.88108E-01 0.00000E+00 2.03537E-02 0.00000E+00 1.67755E-01
 20.000 2.25382E-01 0.00000E+00 3.30378E-02 0.00000E+00 1.92344E-01
 21.000 2.39274E-01 0.00000E+00 5.59636E-02 0.00000E+00 1.83311E-01
 22.000 1.99497E-01 0.00000E+00 7.57570E-02 0.00000E+00 1.23740E-01
 23.000 1.64634E-01 0.00000E+00 9.25777E-02 0.00000E+00 7.20566E-02
 24.000 1.45397E-01 0.00000E+00 1.06596E-01 0.00000E+00 3.88012E-02
 25.000 1.39311E-01 0.00000E+00 1.17991E-01 0.00000E+00 2.13205E-02
 26.000 1.37619E-01 0.00000E+00 1.26943E-01 0.00000E+00 1.06757E-02
 27.000 1.39337E-01 0.00000E+00 1.33641E-01 0.00000E+00 5.69534E-03
 28.000 1.41034E-01 0.00000E+00 1.38273E-01 0.00000E+00 2.76151E-03
 29.000 1.42424E-01 0.00000E+00 1.41025E-01 0.00000E+00 1.39949E-03
 30.000 1.42760E-01 0.00000E+00 1.42083E-01 0.00000E+00 6.77383E-04
 31.000 1.41941E-01 0.00000E+00 1.41628E-01 0.00000E+00 3.12669E-04
 32.000 1.39995E-01 0.00000E+00 1.39837E-01 0.00000E+00 1.57917E-04
 33.000 1.36943E-01 0.00000E+00 1.36878E-01 0.00000E+00 6.56678E-05
 34.000 1.32944E-01 0.00000E+00 1.32910E-01 0.00000E+00 3.47848E-05
 35.000 1.28097E-01 0.00000E+00 1.28083E-01 0.00000E+00 1.45366E-05
 36.000 1.22565E-01 0.00000E+00 1.22558E-01 0.00000E+00 7.19814E-06
 37.000 1.16483E-01 0.00000E+00 1.16480E-01 0.00000E+00 3.07491E-06
 38.000 1.09976E-01 0.00000E+00 1.09974E-01 0.00000E+00 1.36023E-06
 39.000 1.03158E-01 0.00000E+00 1.03157E-01 0.00000E+00 6.16476E-07
 40.000 9.61388E-02 0.00000E+00 9.61386E-02 0.00000E+00 2.24059E-07
 42.000 8.18954E-02 0.00000E+00 8.18954E-02 0.00000E+00 4.01697E-08
 44.000 6.79683E-02 0.00000E+00 6.79682E-02 0.00000E+00 7.21741E-09
 46.000 5.49727E-02 0.00000E+00 5.49727E-02 0.00000E+00 1.21457E-09
 48.000 4.34166E-02 0.00000E+00 4.34166E-02 0.00000E+00 1.94435E-10
 50.000 3.33164E-02 0.00000E+00 3.33164E-02 0.00000E+00 0.00000E+00
 52.000 2.47588E-02 0.00000E+00 2.47588E-02 0.00000E+00 0.00000E+00
 54.000 1.78037E-02 0.00000E+00 1.78037E-02 0.00000E+00 0.00000E+00
 56.000 1.23577E-02 0.00000E+00 1.23577E-02 0.00000E+00 0.00000E+00
 58.000 8.21666E-03 0.00000E+00 8.21666E-03 0.00000E+00 0.00000E+00
 60.000 5.10845E-03 0.00000E+00 5.10845E-03 0.00000E+00 0.00000E+00
 62.000 2.92190E-03 0.00000E+00 2.92190E-03 0.00000E+00 0.00000E+00
 64.000 1.56489E-03 0.00000E+00 1.56489E-03 0.00000E+00 0.00000E+00
 66.000 7.61323E-04 0.00000E+00 7.61323E-04 0.00000E+00 0.00000E+00
 68.000 3.14163E-04 0.00000E+00 3.14163E-04 0.00000E+00 0.00000E+00
 70.000 8.93623E-05 0.00000E+00 8.93623E-05 0.00000E+00 0.00000E+00
 70.100 8.74930E-05 2.58621E-06 8.49068E-05 0.00000E+00 0.00000E+00
 70.200 8.41033E-05 3.65205E-06 8.04513E-05 0.00000E+00 0.00000E+00
 70.300 8.10253E-05 5.02983E-06 7.59955E-05 0.00000E+00 0.00000E+00
 70.400 7.82968E-05 6.75677E-06 7.15400E-05 0.00000E+00 0.00000E+00
 70.500 7.59387E-05 8.85424E-06 6.70845E-05 0.00000E+00 0.00000E+00
 70.600 7.39488E-05 1.13198E-05 6.26290E-05 0.00000E+00 0.00000E+00
 70.700 7.22941E-05 1.41206E-05 5.81735E-05 0.00000E+00 0.00000E+00
 70.800 7.09067E-05 1.71890E-05 5.37177E-05 0.00000E+00 0.00000E+00
 70.900 6.96829E-05 2.04207E-05 4.92622E-05 0.00000E+00 0.00000E+00
 71.000 6.84866E-05 2.36798E-05 4.48067E-05 0.00000E+00 0.00000E+00
 71.100 6.71571E-05 2.68058E-05 4.03513E-05 0.00000E+00 0.00000E+00
 71.200 6.55222E-05 2.96265E-05 3.58958E-05 0.00000E+00 0.00000E+00
 71.300 6.34136E-05 3.19736E-05 3.14399E-05 0.00000E+00 0.00000E+00
 71.400 6.06838E-05 3.36993E-05 2.69845E-05 0.00000E+00 0.00000E+00
 71.500 5.72211E-05 3.46921E-05 2.25290E-05 0.00000E+00 0.00000E+00
 71.600 5.29620E-05 3.48885E-05 1.80735E-05 0.00000E+00 0.00000E+00
 71.700 4.78978E-05 3.42798E-05 1.36180E-05 0.00000E+00 0.00000E+00
 71.800 4.20746E-05 3.29124E-05 9.16218E-06 0.00000E+00 0.00000E+00
 71.900 3.55891E-05 3.08824E-05 4.70669E-06 0.00000E+00 0.00000E+00
 72.000 2.85750E-05 2.83238E-05 2.51210E-07 0.00000E+00 0.00000E+00
 72.100 2.56331E-05 2.53945E-05 2.38649E-07 0.00000E+00 0.00000E+00
 72.200 2.24865E-05 2.22605E-05 2.26089E-07 0.00000E+00 0.00000E+00
 72.300 1.92938E-05 1.90802E-05 2.13528E-07 0.00000E+00 0.00000E+00
 72.400 1.61947E-05 1.59937E-05 2.00968E-07 0.00000E+00 0.00000E+00
 72.500 1.33005E-05 1.31121E-05 1.88407E-07 0.00000E+00 0.00000E+00
 72.600 1.06905E-05 1.05147E-05 1.75847E-07 0.00000E+00 0.00000E+00
 72.700 8.41143E-06 8.24814E-06 1.63287E-07 0.00000E+00 0.00000E+00
 72.800 6.48027E-06 6.32955E-06 1.50725E-07 0.00000E+00 0.00000E+00
 72.900 4.89028E-06 4.75212E-06 1.38165E-07 0.00000E+00 0.00000E+00
 73.000 3.61627E-06 3.49066E-06 1.25605E-07 0.00000E+00 0.00000E+00
 73.100 2.62171E-06 2.50867E-06 1.13045E-07 0.00000E+00 0.00000E+00
 73.200 1.86447E-06 1.76398E-06 1.00484E-07 0.00000E+00 0.00000E+00
 73.300 1.30144E-06 1.21351E-06 8.79230E-08 0.00000E+00 0.00000E+00
 73.400 8.92145E-07 8.16783E-07 7.53627E-08 0.00000E+00 0.00000E+00
 73.500 6.00637E-07 5.37835E-07 6.28024E-08 0.00000E+00 0.00000E+00
 73.600 3.96699E-07 3.46457E-07 5.02421E-08 0.00000E+00 0.00000E+00
 73.700 2.55994E-07 2.18312E-07 3.76818E-08 0.00000E+00 0.00000E+00
 73.800 1.59671E-07 1.34550E-07 2.51206E-08 0.00000E+00 0.00000E+00
 73.900 9.36693E-08 8.11090E-08 1.25603E-08 0.00000E+00 0.00000E+00
 74.000 4.78163E-08 4.78163E-08 0.00000E+00 0.00000E+00 0.00000E+00
 74.100 2.75655E-08 2.75655E-08 0.00000E+00 0.00000E+00 0.00000E+00
 74.200 1.55382E-08 1.55382E-08 0.00000E+00 0.00000E+00 0.00000E+00
 74.300 8.56288E-09 8.56288E-09 0.00000E+00 0.00000E+00 0.00000E+00
 74.400 4.61345E-09 4.61345E-09 0.00000E+00 0.00000E+00 0.00000E+00
 74.500 2.42975E-09 2.42975E-09 0.00000E+00 0.00000E+00 0.00000E+00
 74.600 1.25081E-09 1.25081E-09 0.00000E+00 0.00000E+00 0.00000E+00
 74.700 6.29339E-10 6.29339E-10 0.00000E+00 0.00000E+00 0.00000E+00
 74.800 3.09446E-10 3.09446E-10 0.00000E+00 0.00000E+00 0.00000E+00
 74.900 1.48700E-10 1.48700E-10 0.00000E+00 0.00000E+00 0.00000E+00
 75.000 6.98256E-11 6.98256E-11 0.00000E+00 0.00000E+00 0.00000E+00
 75.100 3.20384E-11 3.20384E-11 0.00000E+00 0.00000E+00 0.00000E+00
 75.200 1.43634E-11 1.43634E-11 0.00000E+00 0.00000E+00 0.00000E+00
 75.300 6.29105E-12 6.29105E-12 0.00000E+00 0.00000E+00 0.00000E+00
 75.400 2.69219E-12 2.69219E-12 0.00000E+00 0.00000E+00 0.00000E+00
 75.500 1.12553E-12 1.12553E-12 0.00000E+00 0.00000E+00 0.00000E+00
 75.600 4.59680E-13 4.59680E-13 0.00000E+00 0.00000E+00 0.00000E+00
 75.700 1.83394E-13 1.83394E-13 0.00000E+00 0.00000E+00 0.00000E+00
 75.800 7.14650E-14 7.14650E-14 0.00000E+00 0.00000E+00 0.00000E+00
 75.900 2.72033E-14 2.72033E-14 0.00000E+00 0.00000E+00 0.00000E+00
 76.000 1.01138E-14 1.01138E-14 0.00000E+00 0.00000E+00 0.00000E+00
 76.100 3.67244E-15 3.67244E-15 0.00000E+00 0.00000E+00 0.00000E+00
 76.200 1.30231E-15 1.30231E-15 0.00000E+00 0.00000E+00 0.00000E+00
 76.300 4.50950E-16 4.50950E-16 0.00000E+00 0.00000E+00 0.00000E+00
 76.400 1.52491E-16 1.52491E-16 0.00000E+00 0.00000E+00 0.00000E+00
 76.500 5.03495E-17 5.03495E-17 0.00000E+00 0.00000E+00 0.00000E+00
 76.600 1.62312E-17 1.62312E-17 0.00000E+00 0.00000E+00 0.00000E+00
 76.700 5.10834E-18 5.10834E-18 0.00000E+00 0.00000E+00 0.00000E+00
 76.800 1.56931E-18 1.56931E-18 0.00000E+00 0.00000E+00 0.00000E+00
 76.900 4.70630E-19 4.70630E-19 0.00000E+00 0.00000E+00 0.00000E+00
 77.000 1.37759E-19 1.37759E-19 0.00000E+00 0.00000E+00 0.00000E+00
 77.100 3.93547E-20 3.93547E-20 0.00000E+00 0.00000E+00 0.00000E+00
 77.200 1.09716E-20 1.09716E-20 0.00000E+00 0.00000E+00 0.00000E+00
 77.300 2.98442E-21 2.98442E-21 0.00000E+00 0.00000E+00 0.00000E+00
 77.400 7.92171E-22 7.92171E-22 0.00000E+00 0.00000E+00 0.00000E+00
 77.500 2.05148E-22 2.05148E-22 0.00000E+00 0.00000E+00 0.00000E+00
 77.600 5.18290E-23 5.18290E-23 0.00000E+00 0.00000E+00 0.00000E+00
 77.700 1.27731E-23 1.27731E-23 0.00000E+00 0.00000E+00 0.00000E+00
 77.800 3.07017E-24 3.07017E-24 0.00000E+00 0.00000E+00 0.00000E+00
 77.900 7.19831E-25 7.19831E-25 0.00000E+00 0.00000E+00 0.00000E+00
 78.000 1.64597E-25 1.64597E-25 0.00000E+00 0.00000E+00 0.00000E+00
 78.100 3.67036E-26 3.67036E-26 0.00000E+00 0.00000E+00 0.00000E+00
 78.200 7.98107E-27 7.98107E-27 0.00000E+00 0.00000E+00 0.00000E+00
 78.300 1.69200E-27 1.69200E-27 0.00000E+00 0.00000E+00 0.00000E+00
 78.400 3.49788E-28 3.49788E-28 0.00000E+00 0.00000E+00 0.00000E+00
 78.500 7.05015E-29 7.05015E-29 0.00000E+00 0.00000E+00 0.00000E+00
 78.600 1.38535E-29 1.38535E-29 0.00000E+00 0.00000E+00 0.00000E+00
 78.700 2.65376E-30 2.65376E-30 0.00000E+00 0.00000E+00 0.00000E+00
 78.800 4.95491E-31 4.95491E-31 0.00000E+00 0.00000E+00 0.00000E+00
 78.900 9.01923E-32 9.01923E-32 0.00000E+00 0.00000E+00 0.00000E+00
 79.000 1.60027E-32 1.60027E-32 0.00000E+00 0.00000E+00 0.00000E+00
 79.100 2.76749E-33 2.76749E-33 0.00000E+00 0.00000E+00 0.00000E+00
 79.200 4.66485E-34 4.66485E-34 0.00000E+00 0.00000E+00 0.00000E+00
 79.300 7.66251E-35 7.66251E-35 0.00000E+00 0.00000E+00 0.00000E+00
 79.400 1.22686E-35 1.22686E-35 0.00000E+00 0.00000E+00 0.00000E+00
 79.500 1.91441E-36 1.91441E-36 0.00000E+00 0.00000E+00 0.00000E+00
 79.600 2.91127E-37 2.91127E-37 0.00000E+00 0.00000E+00 0.00000E+00
 79.700 4.31445E-38 4.31445E-38 0.00000E+00 0.00000E+00 0.00000E+00
 79.800 6.23006E-39 6.23006E-39 0.00000E+00 0.00000E+00 0.00000E+00
 79.900 8.76801E-40 8.76801E-40 0.00000E+00 0.00000E+00 0.00000E+00
 80.000 1.20248E-40 1.20248E-40 0.00000E+00 0.00000E+00 0.00000E+00
 80.100 1.60715E-41 1.60715E-41 0.00000E+00 0.00000E+00 0.00000E+00
 80.200 2.09354E-42 2.09354E-42 0.00000E+00 0.00000E+00 0.00000E+00
 80.300 2.64845E-43 2.64845E-43 0.00000E+00 0.00000E+00 0.00000E+00
 80.400 3.22299E-44 3.22299E-44 0.00000E+00 0.00000E+00 0.00000E+00
 80.500 4.20390E-45 4.20390E-45 0.00000E+00 0.00000E+00 0.00000E+00
 80.600 0.00000E+00 0.00000E+00 0.00000E+00 0.00000E+00 0.00000E+00
 80.700 0.00000E+00 0.00000E+00 0.00000E+00 0.00000E+00 0.00000E+00
 80.800 0.00000E+00 0.00000E+00 0.00000E+00 0.00000E+00 0.00000E+00
 80.900 0.00000E+00 0.00000E+00 0.00000E+00 0.00000E+00 0.00000E+00
 81.000 0.00000E+00 0.00000E+00 0.00000E+00 0.00000E+00 0.00000E+00
 81.100 0.00000E+00 0.00000E+00 0.00000E+00 0.00000E+00 0.00000E+00
 81.200 0.00000E+00 0.00000E+00 0.00000E+00 0.00000E+00 0.00000E+00
 81.300 0.00000E+00 0.00000E+00 0.00000E+00 0.00000E+00 0.00000E+00
 81.400 0.00000E+00 0.00000E+00 0.00000E+00 0.00000E+00 0.00000E+00
 81.500 0.00000E+00 0.00000E+00 0.00000E+00 0.00000E+00 0.00000E+00
 81.600 0.00000E+00 0.00000E+00 0.00000E+00 0.00000E+00 0.00000E+00
 81.700 0.00000E+00 0.00000E+00 0.00000E+00 0.00000E+00 0.00000E+00
 81.800 0.00000E+00 0.00000E+00 0.00000E+00 0.00000E+00 0.00000E+00
 81.900 0.00000E+00 0.00000E+00 0.00000E+00 0.00000E+00 0.00000E+00
 82.000 0.00000E+00 0.00000E+00 0.00000E+00 0.00000E+00 0.00000E+00
