# n + 209Bi: alpha    DDX spectrum
# E-incident =  63.000
# Angle      = 110.000
# # energies =211
# E-out    Total       Direct    Pre-equil.  Mult. preeq  Compound
  0.700 0.00000E+00 0.00000E+00 0.00000E+00 0.00000E+00 0.00000E+00
  0.800 0.00000E+00 0.00000E+00 0.00000E+00 0.00000E+00 0.00000E+00
  0.900 0.00000E+00 0.00000E+00 0.00000E+00 0.00000E+00 0.00000E+00
  1.000 0.00000E+00 0.00000E+00 0.00000E+00 0.00000E+00 0.00000E+00
  1.100 0.00000E+00 0.00000E+00 0.00000E+00 0.00000E+00 0.00000E+00
  1.200 0.00000E+00 0.00000E+00 0.00000E+00 0.00000E+00 0.00000E+00
  1.300 0.00000E+00 0.00000E+00 0.00000E+00 0.00000E+00 0.00000E+00
  1.400 0.00000E+00 0.00000E+00 0.00000E+00 0.00000E+00 0.00000E+00
  1.500 0.00000E+00 0.00000E+00 0.00000E+00 0.00000E+00 0.00000E+00
  1.600 0.00000E+00 0.00000E+00 0.00000E+00 0.00000E+00 0.00000E+00
  1.700 0.00000E+00 0.00000E+00 0.00000E+00 0.00000E+00 0.00000E+00
  1.800 0.00000E+00 0.00000E+00 0.00000E+00 0.00000E+00 0.00000E+00
  1.900 0.00000E+00 0.00000E+00 0.00000E+00 0.00000E+00 0.00000E+00
  2.000 0.00000E+00 0.00000E+00 0.00000E+00 0.00000E+00 0.00000E+00
  2.200 0.00000E+00 0.00000E+00 0.00000E+00 0.00000E+00 0.00000E+00
  2.400 0.00000E+00 0.00000E+00 0.00000E+00 0.00000E+00 0.00000E+00
  2.600 0.00000E+00 0.00000E+00 0.00000E+00 0.00000E+00 0.00000E+00
  2.800 4.45613E-43 0.00000E+00 4.45613E-43 0.00000E+00 0.00000E+00
  3.000 1.73199E-40 0.00000E+00 1.73199E-40 0.00000E+00 0.00000E+00
  3.200 1.91437E-37 0.00000E+00 1.91437E-37 0.00000E+00 0.00000E+00
  3.400 2.43452E-35 0.00000E+00 2.43452E-35 0.00000E+00 0.00000E+00
  3.600 1.96651E-33 0.00000E+00 1.96651E-33 0.00000E+00 0.00000E+00
  3.800 1.07712E-31 0.00000E+00 1.07712E-31 0.00000E+00 0.00000E+00
  4.000 4.20304E-30 0.00000E+00 4.20304E-30 0.00000E+00 0.00000E+00
  4.500 1.16674E-26 0.00000E+00 1.16674E-26 0.00000E+00 0.00000E+00
  5.000 7.99826E-24 0.00000E+00 7.99826E-24 0.00000E+00 0.00000E+00
  5.500 1.87869E-21 0.00000E+00 1.87869E-21 0.00000E+00 0.00000E+00
  6.000 1.90480E-19 0.00000E+00 1.90480E-19 0.00000E+00 0.00000E+00
  6.500 9.87440E-18 0.00000E+00 9.87440E-18 0.00000E+00 0.00000E+00
  7.000 2.97526E-16 0.00000E+00 2.97526E-16 0.00000E+00 0.00000E+00
  7.500 5.75400E-15 0.00000E+00 5.75400E-15 0.00000E+00 0.00000E+00
  8.000 2.39042E-11 0.00000E+00 7.72942E-14 0.00000E+00 2.38269E-11
  8.500 9.33009E-10 0.00000E+00 7.68323E-13 0.00000E+00 9.32241E-10
  9.000 8.58557E-07 0.00000E+00 5.94753E-12 0.00000E+00 8.58551E-07
  9.500 1.94567E-05 0.00000E+00 3.73581E-11 0.00000E+00 1.94567E-05
 10.000 1.16706E-04 0.00000E+00 1.96728E-10 0.00000E+00 1.16705E-04
 10.500 3.80803E-04 0.00000E+00 8.91461E-10 0.00000E+00 3.80802E-04
 11.000 8.24606E-04 0.00000E+00 3.54903E-09 0.00000E+00 8.24602E-04
 11.500 1.49407E-03 0.00000E+00 1.26250E-08 0.00000E+00 1.49406E-03
 12.000 2.12771E-03 0.00000E+00 4.07018E-08 0.00000E+00 2.12767E-03
 12.500 2.89665E-03 0.00000E+00 1.20361E-07 0.00000E+00 2.89653E-03
 13.000 3.79890E-03 0.00000E+00 3.29947E-07 0.00000E+00 3.79857E-03
 13.500 5.30738E-03 0.00000E+00 8.46319E-07 0.00000E+00 5.30654E-03
 14.000 7.25437E-03 0.00000E+00 2.04802E-06 0.00000E+00 7.25232E-03
 14.500 9.82500E-03 0.00000E+00 4.70990E-06 0.00000E+00 9.82029E-03
 15.000 1.33766E-02 0.00000E+00 1.03591E-05 0.00000E+00 1.33662E-02
 15.500 1.79558E-02 0.00000E+00 2.19048E-05 0.00000E+00 1.79339E-02
 16.000 2.35382E-02 0.00000E+00 4.47211E-05 0.00000E+00 2.34935E-02
 16.500 2.99328E-02 0.00000E+00 8.84257E-05 0.00000E+00 2.98443E-02
 17.000 3.73469E-02 0.00000E+00 1.69639E-04 0.00000E+00 3.71773E-02
 17.500 4.60769E-02 0.00000E+00 3.16084E-04 0.00000E+00 4.57608E-02
 18.000 5.46775E-02 0.00000E+00 5.71696E-04 0.00000E+00 5.41058E-02
 18.500 6.25152E-02 0.00000E+00 1.00165E-03 0.00000E+00 6.15136E-02
 19.000 7.00497E-02 0.00000E+00 1.69337E-03 0.00000E+00 6.83563E-02
 19.500 7.56770E-02 0.00000E+00 2.74673E-03 0.00000E+00 7.29303E-02
 20.000 7.78971E-02 0.00000E+00 4.24799E-03 0.00000E+00 7.36492E-02
 21.000 7.45713E-02 0.00000E+00 8.65214E-03 0.00000E+00 6.59192E-02
 22.000 6.31741E-02 0.00000E+00 1.42909E-02 0.00000E+00 4.88832E-02
 23.000 5.03351E-02 0.00000E+00 2.00117E-02 0.00000E+00 3.03234E-02
 24.000 4.17078E-02 0.00000E+00 2.50212E-02 0.00000E+00 1.66866E-02
 25.000 3.72560E-02 0.00000E+00 2.90140E-02 0.00000E+00 8.24199E-03
 26.000 3.58716E-02 0.00000E+00 3.19604E-02 0.00000E+00 3.91119E-03
 27.000 3.57002E-02 0.00000E+00 3.39419E-02 0.00000E+00 1.75826E-03
 28.000 3.58521E-02 0.00000E+00 3.50764E-02 0.00000E+00 7.75710E-04
 29.000 3.58236E-02 0.00000E+00 3.54847E-02 0.00000E+00 3.38953E-04
 30.000 3.54227E-02 0.00000E+00 3.52813E-02 0.00000E+00 1.41492E-04
 31.000 3.46303E-02 0.00000E+00 3.45694E-02 0.00000E+00 6.09256E-05
 32.000 3.34681E-02 0.00000E+00 3.34433E-02 0.00000E+00 2.48493E-05
 33.000 3.19979E-02 0.00000E+00 3.19874E-02 0.00000E+00 1.05168E-05
 34.000 3.02802E-02 0.00000E+00 3.02760E-02 0.00000E+00 4.22043E-06
 35.000 2.83773E-02 0.00000E+00 2.83755E-02 0.00000E+00 1.77991E-06
 36.000 2.63434E-02 0.00000E+00 2.63427E-02 0.00000E+00 7.16006E-07
 37.000 2.42273E-02 0.00000E+00 2.42270E-02 0.00000E+00 2.98515E-07
 38.000 2.20714E-02 0.00000E+00 2.20712E-02 0.00000E+00 1.17168E-07
 39.000 1.99108E-02 0.00000E+00 1.99107E-02 0.00000E+00 4.91938E-08
 40.000 1.78150E-02 0.00000E+00 1.78150E-02 0.00000E+00 1.69422E-08
 42.000 1.39330E-02 0.00000E+00 1.39330E-02 0.00000E+00 2.78227E-09
 44.000 1.05571E-02 0.00000E+00 1.05571E-02 0.00000E+00 4.18920E-10
 46.000 7.73974E-03 0.00000E+00 7.73974E-03 0.00000E+00 0.00000E+00
 48.000 5.47932E-03 0.00000E+00 5.47932E-03 0.00000E+00 0.00000E+00
 50.000 3.73598E-03 0.00000E+00 3.73598E-03 0.00000E+00 0.00000E+00
 52.000 2.44511E-03 0.00000E+00 2.44511E-03 0.00000E+00 0.00000E+00
 54.000 1.52957E-03 0.00000E+00 1.52957E-03 0.00000E+00 0.00000E+00
 56.000 9.09630E-04 0.00000E+00 9.09630E-04 0.00000E+00 0.00000E+00
 58.000 5.10635E-04 0.00000E+00 5.10635E-04 0.00000E+00 0.00000E+00
 60.000 2.67986E-04 0.00000E+00 2.67986E-04 0.00000E+00 0.00000E+00
 62.000 1.29670E-04 0.00000E+00 1.29670E-04 0.00000E+00 0.00000E+00
 64.000 5.66141E-05 0.00000E+00 5.66141E-05 0.00000E+00 0.00000E+00
 66.000 2.14866E-05 0.00000E+00 2.14866E-05 0.00000E+00 0.00000E+00
 68.000 6.56760E-06 0.00000E+00 6.56760E-06 0.00000E+00 0.00000E+00
 70.000 1.30337E-06 0.00000E+00 1.30337E-06 0.00000E+00 0.00000E+00
 70.100 1.26867E-06 3.03132E-08 1.23836E-06 0.00000E+00 0.00000E+00
 70.200 1.21616E-06 4.28127E-08 1.17335E-06 0.00000E+00 0.00000E+00
 70.300 1.16730E-06 5.89741E-08 1.10833E-06 0.00000E+00 0.00000E+00
 70.400 1.12255E-06 7.92359E-08 1.04331E-06 0.00000E+00 0.00000E+00
 70.500 1.08215E-06 1.03852E-07 9.78302E-07 0.00000E+00 0.00000E+00
 70.600 1.04609E-06 1.32797E-07 9.13289E-07 0.00000E+00 0.00000E+00
 70.700 1.01396E-06 1.65688E-07 8.48277E-07 0.00000E+00 0.00000E+00
 70.800 9.84997E-07 2.01738E-07 7.83259E-07 0.00000E+00 0.00000E+00
 70.900 9.57972E-07 2.39726E-07 7.18246E-07 0.00000E+00 0.00000E+00
 71.000 9.31293E-07 2.78060E-07 6.53234E-07 0.00000E+00 0.00000E+00
 71.100 9.03079E-07 3.14858E-07 5.88221E-07 0.00000E+00 0.00000E+00
 71.200 8.71307E-07 3.48099E-07 5.23208E-07 0.00000E+00 0.00000E+00
 71.300 8.33999E-07 3.75808E-07 4.58191E-07 0.00000E+00 0.00000E+00
 71.400 7.89421E-07 3.96243E-07 3.93178E-07 0.00000E+00 0.00000E+00
 71.500 7.36254E-07 4.08089E-07 3.28165E-07 0.00000E+00 0.00000E+00
 71.600 6.73743E-07 4.10591E-07 2.63152E-07 0.00000E+00 0.00000E+00
 71.700 6.01775E-07 4.03635E-07 1.98140E-07 0.00000E+00 0.00000E+00
 71.800 5.20877E-07 3.87755E-07 1.33122E-07 0.00000E+00 0.00000E+00
 71.900 4.32176E-07 3.64067E-07 6.81094E-08 0.00000E+00 0.00000E+00
 72.000 3.37232E-07 3.34135E-07 3.09675E-09 0.00000E+00 0.00000E+00
 72.100 3.02750E-07 2.99808E-07 2.94192E-09 0.00000E+00 0.00000E+00
 72.200 2.65816E-07 2.63029E-07 2.78708E-09 0.00000E+00 0.00000E+00
 72.300 2.28293E-07 2.25661E-07 2.63223E-09 0.00000E+00 0.00000E+00
 72.400 1.91826E-07 1.89349E-07 2.47740E-09 0.00000E+00 0.00000E+00
 72.500 1.57730E-07 1.55407E-07 2.32256E-09 0.00000E+00 0.00000E+00
 72.600 1.26941E-07 1.24773E-07 2.16773E-09 0.00000E+00 0.00000E+00
 72.700 1.00020E-07 9.80069E-08 2.01289E-09 0.00000E+00 0.00000E+00
 72.800 7.71759E-08 7.53178E-08 1.85805E-09 0.00000E+00 0.00000E+00
 72.900 5.83386E-08 5.66354E-08 1.70321E-09 0.00000E+00 0.00000E+00
 73.000 4.32197E-08 4.16713E-08 1.54838E-09 0.00000E+00 0.00000E+00
 73.100 3.13960E-08 3.00024E-08 1.39354E-09 0.00000E+00 0.00000E+00
 73.200 2.23760E-08 2.11373E-08 1.23871E-09 0.00000E+00 0.00000E+00
 73.300 1.56552E-08 1.45713E-08 1.08386E-09 0.00000E+00 0.00000E+00
 73.400 1.07582E-08 9.82918E-09 9.29023E-10 0.00000E+00 0.00000E+00
 73.500 7.26169E-09 6.48750E-09 7.74188E-10 0.00000E+00 0.00000E+00
 73.600 4.80878E-09 4.18943E-09 6.19353E-10 0.00000E+00 0.00000E+00
 73.700 3.11132E-09 2.64680E-09 4.64517E-10 0.00000E+00 0.00000E+00
 73.800 1.94547E-09 1.63580E-09 3.09670E-10 0.00000E+00 0.00000E+00
 73.900 1.14378E-09 9.88947E-10 1.54835E-10 0.00000E+00 0.00000E+00
 74.000 5.84790E-10 5.84790E-10 0.00000E+00 0.00000E+00 0.00000E+00
 74.100 3.38198E-10 3.38198E-10 0.00000E+00 0.00000E+00 0.00000E+00
 74.200 1.91269E-10 1.91269E-10 0.00000E+00 0.00000E+00 0.00000E+00
 74.300 1.05769E-10 1.05769E-10 0.00000E+00 0.00000E+00 0.00000E+00
 74.400 5.71898E-11 5.71898E-11 0.00000E+00 0.00000E+00 0.00000E+00
 74.500 3.02316E-11 3.02316E-11 0.00000E+00 0.00000E+00 0.00000E+00
 74.600 1.56225E-11 1.56225E-11 0.00000E+00 0.00000E+00 0.00000E+00
 74.700 7.89139E-12 7.89139E-12 0.00000E+00 0.00000E+00 0.00000E+00
 74.800 3.89591E-12 3.89591E-12 0.00000E+00 0.00000E+00 0.00000E+00
 74.900 1.87989E-12 1.87989E-12 0.00000E+00 0.00000E+00 0.00000E+00
 75.000 8.86486E-13 8.86486E-13 0.00000E+00 0.00000E+00 0.00000E+00
 75.100 4.08505E-13 4.08505E-13 0.00000E+00 0.00000E+00 0.00000E+00
 75.200 1.83942E-13 1.83942E-13 0.00000E+00 0.00000E+00 0.00000E+00
 75.300 8.09223E-14 8.09223E-14 0.00000E+00 0.00000E+00 0.00000E+00
 75.400 3.47846E-14 3.47846E-14 0.00000E+00 0.00000E+00 0.00000E+00
 75.500 1.46078E-14 1.46078E-14 0.00000E+00 0.00000E+00 0.00000E+00
 75.600 5.99291E-15 5.99291E-15 0.00000E+00 0.00000E+00 0.00000E+00
 75.700 2.40169E-15 2.40169E-15 0.00000E+00 0.00000E+00 0.00000E+00
 75.800 9.40078E-16 9.40078E-16 0.00000E+00 0.00000E+00 0.00000E+00
 75.900 3.59430E-16 3.59430E-16 0.00000E+00 0.00000E+00 0.00000E+00
 76.000 1.34217E-16 1.34217E-16 0.00000E+00 0.00000E+00 0.00000E+00
 76.100 4.89458E-17 4.89458E-17 0.00000E+00 0.00000E+00 0.00000E+00
 76.200 1.74303E-17 1.74303E-17 0.00000E+00 0.00000E+00 0.00000E+00
 76.300 6.06055E-18 6.06055E-18 0.00000E+00 0.00000E+00 0.00000E+00
 76.400 2.05764E-18 2.05764E-18 0.00000E+00 0.00000E+00 0.00000E+00
 76.500 6.82045E-19 6.82045E-19 0.00000E+00 0.00000E+00 0.00000E+00
 76.600 2.20701E-19 2.20701E-19 0.00000E+00 0.00000E+00 0.00000E+00
 76.700 6.97121E-20 6.97121E-20 0.00000E+00 0.00000E+00 0.00000E+00
 76.800 2.14906E-20 2.14906E-20 0.00000E+00 0.00000E+00 0.00000E+00
 76.900 6.46651E-21 6.46651E-21 0.00000E+00 0.00000E+00 0.00000E+00
 77.000 1.89886E-21 1.89886E-21 0.00000E+00 0.00000E+00 0.00000E+00
 77.100 5.44108E-22 5.44108E-22 0.00000E+00 0.00000E+00 0.00000E+00
 77.200 1.52127E-22 1.52127E-22 0.00000E+00 0.00000E+00 0.00000E+00
 77.300 4.14935E-23 4.14935E-23 0.00000E+00 0.00000E+00 0.00000E+00
 77.400 1.10422E-23 1.10422E-23 0.00000E+00 0.00000E+00 0.00000E+00
 77.500 2.86653E-24 2.86653E-24 0.00000E+00 0.00000E+00 0.00000E+00
 77.600 7.25854E-25 7.25854E-25 0.00000E+00 0.00000E+00 0.00000E+00
 77.700 1.79268E-25 1.79268E-25 0.00000E+00 0.00000E+00 0.00000E+00
 77.800 4.31754E-26 4.31754E-26 0.00000E+00 0.00000E+00 0.00000E+00
 77.900 1.01418E-26 1.01418E-26 0.00000E+00 0.00000E+00 0.00000E+00
 78.000 2.32309E-27 2.32309E-27 0.00000E+00 0.00000E+00 0.00000E+00
 78.100 5.18871E-28 5.18871E-28 0.00000E+00 0.00000E+00 0.00000E+00
 78.200 1.12998E-28 1.12998E-28 0.00000E+00 0.00000E+00 0.00000E+00
 78.300 2.39896E-29 2.39896E-29 0.00000E+00 0.00000E+00 0.00000E+00
 78.400 4.96588E-30 4.96588E-30 0.00000E+00 0.00000E+00 0.00000E+00
 78.500 1.00212E-30 1.00212E-30 0.00000E+00 0.00000E+00 0.00000E+00
 78.600 1.97138E-31 1.97138E-31 0.00000E+00 0.00000E+00 0.00000E+00
 78.700 3.78034E-32 3.78034E-32 0.00000E+00 0.00000E+00 0.00000E+00
 78.800 7.06525E-33 7.06525E-33 0.00000E+00 0.00000E+00 0.00000E+00
 78.900 1.28723E-33 1.28723E-33 0.00000E+00 0.00000E+00 0.00000E+00
 79.000 2.28582E-34 2.28582E-34 0.00000E+00 0.00000E+00 0.00000E+00
 79.100 3.95619E-35 3.95619E-35 0.00000E+00 0.00000E+00 0.00000E+00
 79.200 6.67334E-36 6.67334E-36 0.00000E+00 0.00000E+00 0.00000E+00
 79.300 1.09691E-36 1.09691E-36 0.00000E+00 0.00000E+00 0.00000E+00
 79.400 1.75739E-37 1.75739E-37 0.00000E+00 0.00000E+00 0.00000E+00
 79.500 2.74386E-38 2.74386E-38 0.00000E+00 0.00000E+00 0.00000E+00
 79.600 4.17492E-39 4.17492E-39 0.00000E+00 0.00000E+00 0.00000E+00
 79.700 6.19033E-40 6.19033E-40 0.00000E+00 0.00000E+00 0.00000E+00
 79.800 8.94295E-41 8.94295E-41 0.00000E+00 0.00000E+00 0.00000E+00
 79.900 1.25907E-41 1.25907E-41 0.00000E+00 0.00000E+00 0.00000E+00
 80.000 1.72780E-42 1.72780E-42 0.00000E+00 0.00000E+00 0.00000E+00
 80.100 2.31214E-43 2.31214E-43 0.00000E+00 0.00000E+00 0.00000E+00
 80.200 2.94273E-44 2.94273E-44 0.00000E+00 0.00000E+00 0.00000E+00
 80.300 4.20390E-45 4.20390E-45 0.00000E+00 0.00000E+00 0.00000E+00
 80.400 0.00000E+00 0.00000E+00 0.00000E+00 0.00000E+00 0.00000E+00
 80.500 0.00000E+00 0.00000E+00 0.00000E+00 0.00000E+00 0.00000E+00
 80.600 0.00000E+00 0.00000E+00 0.00000E+00 0.00000E+00 0.00000E+00
 80.700 0.00000E+00 0.00000E+00 0.00000E+00 0.00000E+00 0.00000E+00
 80.800 0.00000E+00 0.00000E+00 0.00000E+00 0.00000E+00 0.00000E+00
 80.900 0.00000E+00 0.00000E+00 0.00000E+00 0.00000E+00 0.00000E+00
 81.000 0.00000E+00 0.00000E+00 0.00000E+00 0.00000E+00 0.00000E+00
 81.100 0.00000E+00 0.00000E+00 0.00000E+00 0.00000E+00 0.00000E+00
 81.200 0.00000E+00 0.00000E+00 0.00000E+00 0.00000E+00 0.00000E+00
 81.300 0.00000E+00 0.00000E+00 0.00000E+00 0.00000E+00 0.00000E+00
 81.400 0.00000E+00 0.00000E+00 0.00000E+00 0.00000E+00 0.00000E+00
 81.500 0.00000E+00 0.00000E+00 0.00000E+00 0.00000E+00 0.00000E+00
 81.600 0.00000E+00 0.00000E+00 0.00000E+00 0.00000E+00 0.00000E+00
 81.700 0.00000E+00 0.00000E+00 0.00000E+00 0.00000E+00 0.00000E+00
 81.800 0.00000E+00 0.00000E+00 0.00000E+00 0.00000E+00 0.00000E+00
 81.900 0.00000E+00 0.00000E+00 0.00000E+00 0.00000E+00 0.00000E+00
 82.000 0.00000E+00 0.00000E+00 0.00000E+00 0.00000E+00 0.00000E+00
