# n + 209Bi: alpha    DDX spectrum
# E-incident =  63.000
# Angle      =  70.000
# # energies =211
# E-out    Total       Direct    Pre-equil.  Mult. preeq  Compound
  0.700 0.00000E+00 0.00000E+00 0.00000E+00 0.00000E+00 0.00000E+00
  0.800 0.00000E+00 0.00000E+00 0.00000E+00 0.00000E+00 0.00000E+00
  0.900 0.00000E+00 0.00000E+00 0.00000E+00 0.00000E+00 0.00000E+00
  1.000 0.00000E+00 0.00000E+00 0.00000E+00 0.00000E+00 0.00000E+00
  1.100 0.00000E+00 0.00000E+00 0.00000E+00 0.00000E+00 0.00000E+00
  1.200 0.00000E+00 0.00000E+00 0.00000E+00 0.00000E+00 0.00000E+00
  1.300 0.00000E+00 0.00000E+00 0.00000E+00 0.00000E+00 0.00000E+00
  1.400 0.00000E+00 0.00000E+00 0.00000E+00 0.00000E+00 0.00000E+00
  1.500 0.00000E+00 0.00000E+00 0.00000E+00 0.00000E+00 0.00000E+00
  1.600 0.00000E+00 0.00000E+00 0.00000E+00 0.00000E+00 0.00000E+00
  1.700 0.00000E+00 0.00000E+00 0.00000E+00 0.00000E+00 0.00000E+00
  1.800 0.00000E+00 0.00000E+00 0.00000E+00 0.00000E+00 0.00000E+00
  1.900 0.00000E+00 0.00000E+00 0.00000E+00 0.00000E+00 0.00000E+00
  2.000 0.00000E+00 0.00000E+00 0.00000E+00 0.00000E+00 0.00000E+00
  2.200 0.00000E+00 0.00000E+00 0.00000E+00 0.00000E+00 0.00000E+00
  2.400 0.00000E+00 0.00000E+00 0.00000E+00 0.00000E+00 0.00000E+00
  2.600 0.00000E+00 0.00000E+00 0.00000E+00 0.00000E+00 0.00000E+00
  2.800 4.35804E-43 0.00000E+00 4.35804E-43 0.00000E+00 0.00000E+00
  3.000 1.70556E-40 0.00000E+00 1.70556E-40 0.00000E+00 0.00000E+00
  3.200 1.89549E-37 0.00000E+00 1.89549E-37 0.00000E+00 0.00000E+00
  3.400 2.42375E-35 0.00000E+00 2.42375E-35 0.00000E+00 0.00000E+00
  3.600 1.96856E-33 0.00000E+00 1.96856E-33 0.00000E+00 0.00000E+00
  3.800 1.08416E-31 0.00000E+00 1.08416E-31 0.00000E+00 0.00000E+00
  4.000 4.25370E-30 0.00000E+00 4.25370E-30 0.00000E+00 0.00000E+00
  4.500 1.19707E-26 0.00000E+00 1.19707E-26 0.00000E+00 0.00000E+00
  5.000 8.31925E-24 0.00000E+00 8.31925E-24 0.00000E+00 0.00000E+00
  5.500 1.98102E-21 0.00000E+00 1.98102E-21 0.00000E+00 0.00000E+00
  6.000 2.03623E-19 0.00000E+00 2.03623E-19 0.00000E+00 0.00000E+00
  6.500 1.07014E-17 0.00000E+00 1.07014E-17 0.00000E+00 0.00000E+00
  7.000 3.26894E-16 0.00000E+00 3.26894E-16 0.00000E+00 0.00000E+00
  7.500 6.40927E-15 0.00000E+00 6.40927E-15 0.00000E+00 0.00000E+00
  8.000 2.39142E-11 0.00000E+00 8.72868E-14 0.00000E+00 2.38269E-11
  8.500 9.33121E-10 0.00000E+00 8.79659E-13 0.00000E+00 9.32241E-10
  9.000 8.58558E-07 0.00000E+00 6.90374E-12 0.00000E+00 8.58551E-07
  9.500 1.94567E-05 0.00000E+00 4.39661E-11 0.00000E+00 1.94567E-05
 10.000 1.16706E-04 0.00000E+00 2.34744E-10 0.00000E+00 1.16705E-04
 10.500 3.80803E-04 0.00000E+00 1.07854E-09 0.00000E+00 3.80802E-04
 11.000 8.24606E-04 0.00000E+00 4.35375E-09 0.00000E+00 8.24602E-04
 11.500 1.49407E-03 0.00000E+00 1.57043E-08 0.00000E+00 1.49406E-03
 12.000 2.12772E-03 0.00000E+00 5.13394E-08 0.00000E+00 2.12767E-03
 12.500 2.89669E-03 0.00000E+00 1.53953E-07 0.00000E+00 2.89653E-03
 13.000 3.79899E-03 0.00000E+00 4.27989E-07 0.00000E+00 3.79857E-03
 13.500 5.30765E-03 0.00000E+00 1.11334E-06 0.00000E+00 5.30654E-03
 14.000 7.25505E-03 0.00000E+00 2.73247E-06 0.00000E+00 7.25232E-03
 14.500 9.82667E-03 0.00000E+00 6.37361E-06 0.00000E+00 9.82029E-03
 15.000 1.33804E-02 0.00000E+00 1.42191E-05 0.00000E+00 1.33662E-02
 15.500 1.79644E-02 0.00000E+00 3.04999E-05 0.00000E+00 1.79339E-02
 16.000 2.35566E-02 0.00000E+00 6.31698E-05 0.00000E+00 2.34935E-02
 16.500 2.99711E-02 0.00000E+00 1.26720E-04 0.00000E+00 2.98443E-02
 17.000 3.74239E-02 0.00000E+00 2.46660E-04 0.00000E+00 3.71773E-02
 17.500 4.62272E-02 0.00000E+00 4.66355E-04 0.00000E+00 4.57608E-02
 18.000 5.49618E-02 0.00000E+00 8.55976E-04 0.00000E+00 5.41058E-02
 18.500 6.30356E-02 0.00000E+00 1.52208E-03 0.00000E+00 6.15136E-02
 19.000 7.09681E-02 0.00000E+00 2.61181E-03 0.00000E+00 6.83563E-02
 19.500 7.72308E-02 0.00000E+00 4.30052E-03 0.00000E+00 7.29303E-02
 20.000 8.04015E-02 0.00000E+00 6.75235E-03 0.00000E+00 7.36492E-02
 21.000 8.00996E-02 0.00000E+00 1.41804E-02 0.00000E+00 6.59192E-02
 22.000 7.30463E-02 0.00000E+00 2.41630E-02 0.00000E+00 4.88832E-02
 23.000 6.52503E-02 0.00000E+00 3.49269E-02 0.00000E+00 3.03234E-02
 24.000 6.17947E-02 0.00000E+00 4.51081E-02 0.00000E+00 1.66866E-02
 25.000 6.23092E-02 0.00000E+00 5.40673E-02 0.00000E+00 8.24199E-03
 26.000 6.55218E-02 0.00000E+00 6.16106E-02 0.00000E+00 3.91119E-03
 27.000 6.95014E-02 0.00000E+00 6.77431E-02 0.00000E+00 1.75826E-03
 28.000 7.33239E-02 0.00000E+00 7.25482E-02 0.00000E+00 7.75710E-04
 29.000 7.64700E-02 0.00000E+00 7.61311E-02 0.00000E+00 3.38953E-04
 30.000 7.87440E-02 0.00000E+00 7.86025E-02 0.00000E+00 1.41492E-04
 31.000 8.01272E-02 0.00000E+00 8.00663E-02 0.00000E+00 6.09256E-05
 32.000 8.06482E-02 0.00000E+00 8.06234E-02 0.00000E+00 2.48493E-05
 33.000 8.03800E-02 0.00000E+00 8.03695E-02 0.00000E+00 1.05168E-05
 34.000 7.93955E-02 0.00000E+00 7.93913E-02 0.00000E+00 4.22043E-06
 35.000 7.77732E-02 0.00000E+00 7.77714E-02 0.00000E+00 1.77991E-06
 36.000 7.55828E-02 0.00000E+00 7.55821E-02 0.00000E+00 7.16006E-07
 37.000 7.28893E-02 0.00000E+00 7.28890E-02 0.00000E+00 2.98515E-07
 38.000 6.97516E-02 0.00000E+00 6.97515E-02 0.00000E+00 1.17168E-07
 39.000 6.62193E-02 0.00000E+00 6.62192E-02 0.00000E+00 4.91938E-08
 40.000 6.24746E-02 0.00000E+00 6.24746E-02 0.00000E+00 1.69422E-08
 42.000 5.46679E-02 0.00000E+00 5.46679E-02 0.00000E+00 2.78227E-09
 44.000 4.67693E-02 0.00000E+00 4.67693E-02 0.00000E+00 4.18920E-10
 46.000 3.91040E-02 0.00000E+00 3.91040E-02 0.00000E+00 0.00000E+00
 48.000 3.19203E-02 0.00000E+00 3.19203E-02 0.00000E+00 0.00000E+00
 50.000 2.53974E-02 0.00000E+00 2.53974E-02 0.00000E+00 0.00000E+00
 52.000 1.96507E-02 0.00000E+00 1.96507E-02 0.00000E+00 0.00000E+00
 54.000 1.47389E-02 0.00000E+00 1.47389E-02 0.00000E+00 0.00000E+00
 56.000 1.06706E-02 0.00000E+00 1.06706E-02 0.00000E+00 0.00000E+00
 58.000 7.41270E-03 0.00000E+00 7.41270E-03 0.00000E+00 0.00000E+00
 60.000 4.89965E-03 0.00000E+00 4.89965E-03 0.00000E+00 0.00000E+00
 62.000 3.04278E-03 0.00000E+00 3.04278E-03 0.00000E+00 0.00000E+00
 64.000 1.73974E-03 0.00000E+00 1.73974E-03 0.00000E+00 0.00000E+00
 66.000 8.83476E-04 0.00000E+00 8.83476E-04 0.00000E+00 0.00000E+00
 68.000 3.69690E-04 0.00000E+00 3.69690E-04 0.00000E+00 0.00000E+00
 70.000 1.02911E-04 0.00000E+00 1.02911E-04 0.00000E+00 0.00000E+00
 70.100 1.00757E-04 2.97415E-06 9.77830E-05 0.00000E+00 0.00000E+00
 70.200 9.68557E-05 4.20052E-06 9.26552E-05 0.00000E+00 0.00000E+00
 70.300 9.33131E-05 5.78618E-06 8.75269E-05 0.00000E+00 0.00000E+00
 70.400 9.01732E-05 7.77414E-06 8.23990E-05 0.00000E+00 0.00000E+00
 70.500 8.74605E-05 1.01893E-05 7.72712E-05 0.00000E+00 0.00000E+00
 70.600 8.51725E-05 1.30292E-05 7.21433E-05 0.00000E+00 0.00000E+00
 70.700 8.32717E-05 1.62563E-05 6.70154E-05 0.00000E+00 0.00000E+00
 70.800 8.16804E-05 1.97933E-05 6.18871E-05 0.00000E+00 0.00000E+00
 70.900 8.02797E-05 2.35204E-05 5.67593E-05 0.00000E+00 0.00000E+00
 71.000 7.89129E-05 2.72815E-05 5.16314E-05 0.00000E+00 0.00000E+00
 71.100 7.73955E-05 3.08919E-05 4.65035E-05 0.00000E+00 0.00000E+00
 71.200 7.55290E-05 3.41534E-05 4.13757E-05 0.00000E+00 0.00000E+00
 71.300 7.31194E-05 3.68720E-05 3.62474E-05 0.00000E+00 0.00000E+00
 71.400 6.99965E-05 3.88770E-05 3.11195E-05 0.00000E+00 0.00000E+00
 71.500 6.60309E-05 4.00392E-05 2.59917E-05 0.00000E+00 0.00000E+00
 71.600 6.11484E-05 4.02846E-05 2.08638E-05 0.00000E+00 0.00000E+00
 71.700 5.53381E-05 3.96022E-05 1.57359E-05 0.00000E+00 0.00000E+00
 71.800 4.86518E-05 3.80441E-05 1.06077E-05 0.00000E+00 0.00000E+00
 71.900 4.11998E-05 3.57200E-05 5.47980E-06 0.00000E+00 0.00000E+00
 72.000 3.31352E-05 3.27833E-05 3.51932E-07 0.00000E+00 0.00000E+00
 72.100 2.97497E-05 2.94153E-05 3.34336E-07 0.00000E+00 0.00000E+00
 72.200 2.61236E-05 2.58068E-05 3.16739E-07 0.00000E+00 0.00000E+00
 72.300 2.24396E-05 2.21404E-05 2.99142E-07 0.00000E+00 0.00000E+00
 72.400 1.88593E-05 1.85778E-05 2.81545E-07 0.00000E+00 0.00000E+00
 72.500 1.55115E-05 1.52476E-05 2.63949E-07 0.00000E+00 0.00000E+00
 72.600 1.24884E-05 1.22420E-05 2.46353E-07 0.00000E+00 0.00000E+00
 72.700 9.84460E-06 9.61584E-06 2.28756E-07 0.00000E+00 0.00000E+00
 72.800 7.60088E-06 7.38972E-06 2.11159E-07 0.00000E+00 0.00000E+00
 72.900 5.75028E-06 5.55672E-06 1.93562E-07 0.00000E+00 0.00000E+00
 73.000 4.26450E-06 4.08854E-06 1.75966E-07 0.00000E+00 0.00000E+00
 73.100 3.10203E-06 2.94366E-06 1.58370E-07 0.00000E+00 0.00000E+00
 73.200 2.21463E-06 2.07386E-06 1.40773E-07 0.00000E+00 0.00000E+00
 73.300 1.55282E-06 1.42965E-06 1.23176E-07 0.00000E+00 0.00000E+00
 73.400 1.06996E-06 9.64379E-07 1.05579E-07 0.00000E+00 0.00000E+00
 73.500 7.24497E-07 6.36514E-07 8.79830E-08 0.00000E+00 0.00000E+00
 73.600 4.81428E-07 4.11041E-07 7.03867E-08 0.00000E+00 0.00000E+00
 73.700 3.12479E-07 2.59688E-07 5.27903E-08 0.00000E+00 0.00000E+00
 73.800 1.95687E-07 1.60494E-07 3.51927E-08 0.00000E+00 0.00000E+00
 73.900 1.14626E-07 9.70295E-08 1.75963E-08 0.00000E+00 0.00000E+00
 74.000 5.73761E-08 5.73761E-08 0.00000E+00 0.00000E+00 0.00000E+00
 74.100 3.31819E-08 3.31819E-08 0.00000E+00 0.00000E+00 0.00000E+00
 74.200 1.87661E-08 1.87661E-08 0.00000E+00 0.00000E+00 0.00000E+00
 74.300 1.03775E-08 1.03775E-08 0.00000E+00 0.00000E+00 0.00000E+00
 74.400 5.61112E-09 5.61112E-09 0.00000E+00 0.00000E+00 0.00000E+00
 74.500 2.96614E-09 2.96614E-09 0.00000E+00 0.00000E+00 0.00000E+00
 74.600 1.53279E-09 1.53279E-09 0.00000E+00 0.00000E+00 0.00000E+00
 74.700 7.74254E-10 7.74254E-10 0.00000E+00 0.00000E+00 0.00000E+00
 74.800 3.82243E-10 3.82243E-10 0.00000E+00 0.00000E+00 0.00000E+00
 74.900 1.84443E-10 1.84443E-10 0.00000E+00 0.00000E+00 0.00000E+00
 75.000 8.69766E-11 8.69766E-11 0.00000E+00 0.00000E+00 0.00000E+00
 75.100 4.00800E-11 4.00800E-11 0.00000E+00 0.00000E+00 0.00000E+00
 75.200 1.80472E-11 1.80472E-11 0.00000E+00 0.00000E+00 0.00000E+00
 75.300 7.93960E-12 7.93960E-12 0.00000E+00 0.00000E+00 0.00000E+00
 75.400 3.41286E-12 3.41286E-12 0.00000E+00 0.00000E+00 0.00000E+00
 75.500 1.43323E-12 1.43323E-12 0.00000E+00 0.00000E+00 0.00000E+00
 75.600 5.87988E-13 5.87988E-13 0.00000E+00 0.00000E+00 0.00000E+00
 75.700 2.35639E-13 2.35639E-13 0.00000E+00 0.00000E+00 0.00000E+00
 75.800 9.22347E-14 9.22347E-14 0.00000E+00 0.00000E+00 0.00000E+00
 75.900 3.52650E-14 3.52650E-14 0.00000E+00 0.00000E+00 0.00000E+00
 76.000 1.31686E-14 1.31686E-14 0.00000E+00 0.00000E+00 0.00000E+00
 76.100 4.80226E-15 4.80226E-15 0.00000E+00 0.00000E+00 0.00000E+00
 76.200 1.71016E-15 1.71016E-15 0.00000E+00 0.00000E+00 0.00000E+00
 76.300 5.94624E-16 5.94624E-16 0.00000E+00 0.00000E+00 0.00000E+00
 76.400 2.01884E-16 2.01884E-16 0.00000E+00 0.00000E+00 0.00000E+00
 76.500 6.69180E-17 6.69180E-17 0.00000E+00 0.00000E+00 0.00000E+00
 76.600 2.16538E-17 2.16538E-17 0.00000E+00 0.00000E+00 0.00000E+00
 76.700 6.83972E-18 6.83972E-18 0.00000E+00 0.00000E+00 0.00000E+00
 76.800 2.10853E-18 2.10853E-18 0.00000E+00 0.00000E+00 0.00000E+00
 76.900 6.34454E-19 6.34454E-19 0.00000E+00 0.00000E+00 0.00000E+00
 77.000 1.86305E-19 1.86305E-19 0.00000E+00 0.00000E+00 0.00000E+00
 77.100 5.33845E-20 5.33845E-20 0.00000E+00 0.00000E+00 0.00000E+00
 77.200 1.49258E-20 1.49258E-20 0.00000E+00 0.00000E+00 0.00000E+00
 77.300 4.07109E-21 4.07109E-21 0.00000E+00 0.00000E+00 0.00000E+00
 77.400 1.08339E-21 1.08339E-21 0.00000E+00 0.00000E+00 0.00000E+00
 77.500 2.81246E-22 2.81246E-22 0.00000E+00 0.00000E+00 0.00000E+00
 77.600 7.12163E-23 7.12163E-23 0.00000E+00 0.00000E+00 0.00000E+00
 77.700 1.75887E-23 1.75887E-23 0.00000E+00 0.00000E+00 0.00000E+00
 77.800 4.23610E-24 4.23610E-24 0.00000E+00 0.00000E+00 0.00000E+00
 77.900 9.95053E-25 9.95053E-25 0.00000E+00 0.00000E+00 0.00000E+00
 78.000 2.27927E-25 2.27927E-25 0.00000E+00 0.00000E+00 0.00000E+00
 78.100 5.09084E-26 5.09084E-26 0.00000E+00 0.00000E+00 0.00000E+00
 78.200 1.10867E-26 1.10867E-26 0.00000E+00 0.00000E+00 0.00000E+00
 78.300 2.35371E-27 2.35371E-27 0.00000E+00 0.00000E+00 0.00000E+00
 78.400 4.87222E-28 4.87222E-28 0.00000E+00 0.00000E+00 0.00000E+00
 78.500 9.83217E-29 9.83217E-29 0.00000E+00 0.00000E+00 0.00000E+00
 78.600 1.93420E-29 1.93420E-29 0.00000E+00 0.00000E+00 0.00000E+00
 78.700 3.70904E-30 3.70904E-30 0.00000E+00 0.00000E+00 0.00000E+00
 78.800 6.93199E-31 6.93199E-31 0.00000E+00 0.00000E+00 0.00000E+00
 78.900 1.26295E-31 1.26295E-31 0.00000E+00 0.00000E+00 0.00000E+00
 79.000 2.24271E-32 2.24271E-32 0.00000E+00 0.00000E+00 0.00000E+00
 79.100 3.88157E-33 3.88157E-33 0.00000E+00 0.00000E+00 0.00000E+00
 79.200 6.54747E-34 6.54747E-34 0.00000E+00 0.00000E+00 0.00000E+00
 79.300 1.07622E-34 1.07622E-34 0.00000E+00 0.00000E+00 0.00000E+00
 79.400 1.72424E-35 1.72424E-35 0.00000E+00 0.00000E+00 0.00000E+00
 79.500 2.69211E-36 2.69211E-36 0.00000E+00 0.00000E+00 0.00000E+00
 79.600 4.09617E-37 4.09617E-37 0.00000E+00 0.00000E+00 0.00000E+00
 79.700 6.07358E-38 6.07358E-38 0.00000E+00 0.00000E+00 0.00000E+00
 79.800 8.77444E-39 8.77444E-39 0.00000E+00 0.00000E+00 0.00000E+00
 79.900 1.23544E-39 1.23544E-39 0.00000E+00 0.00000E+00 0.00000E+00
 80.000 1.69507E-40 1.69507E-40 0.00000E+00 0.00000E+00 0.00000E+00
 80.100 2.26618E-41 2.26618E-41 0.00000E+00 0.00000E+00 0.00000E+00
 80.200 2.95254E-42 2.95254E-42 0.00000E+00 0.00000E+00 0.00000E+00
 80.300 3.74147E-43 3.74147E-43 0.00000E+00 0.00000E+00 0.00000E+00
 80.400 4.62428E-44 4.62428E-44 0.00000E+00 0.00000E+00 0.00000E+00
 80.500 5.60519E-45 5.60519E-45 0.00000E+00 0.00000E+00 0.00000E+00
 80.600 0.00000E+00 0.00000E+00 0.00000E+00 0.00000E+00 0.00000E+00
 80.700 0.00000E+00 0.00000E+00 0.00000E+00 0.00000E+00 0.00000E+00
 80.800 0.00000E+00 0.00000E+00 0.00000E+00 0.00000E+00 0.00000E+00
 80.900 0.00000E+00 0.00000E+00 0.00000E+00 0.00000E+00 0.00000E+00
 81.000 0.00000E+00 0.00000E+00 0.00000E+00 0.00000E+00 0.00000E+00
 81.100 0.00000E+00 0.00000E+00 0.00000E+00 0.00000E+00 0.00000E+00
 81.200 0.00000E+00 0.00000E+00 0.00000E+00 0.00000E+00 0.00000E+00
 81.300 0.00000E+00 0.00000E+00 0.00000E+00 0.00000E+00 0.00000E+00
 81.400 0.00000E+00 0.00000E+00 0.00000E+00 0.00000E+00 0.00000E+00
 81.500 0.00000E+00 0.00000E+00 0.00000E+00 0.00000E+00 0.00000E+00
 81.600 0.00000E+00 0.00000E+00 0.00000E+00 0.00000E+00 0.00000E+00
 81.700 0.00000E+00 0.00000E+00 0.00000E+00 0.00000E+00 0.00000E+00
 81.800 0.00000E+00 0.00000E+00 0.00000E+00 0.00000E+00 0.00000E+00
 81.900 0.00000E+00 0.00000E+00 0.00000E+00 0.00000E+00 0.00000E+00
 82.000 0.00000E+00 0.00000E+00 0.00000E+00 0.00000E+00 0.00000E+00
