# n + 209Bi: alpha    DDX spectrum
# E-incident =  63.000
# 
# # energies =211
# E-out    Total       Direct    Pre-equil.  Mult. preeq  Compound
  0.700 0.00000E+00 0.00000E+00 0.00000E+00 0.00000E+00 0.00000E+00
  0.800 0.00000E+00 0.00000E+00 0.00000E+00 0.00000E+00 0.00000E+00
  0.900 0.00000E+00 0.00000E+00 0.00000E+00 0.00000E+00 0.00000E+00
  1.000 0.00000E+00 0.00000E+00 0.00000E+00 0.00000E+00 0.00000E+00
  1.100 0.00000E+00 0.00000E+00 0.00000E+00 0.00000E+00 0.00000E+00
  1.200 0.00000E+00 0.00000E+00 0.00000E+00 0.00000E+00 0.00000E+00
  1.300 0.00000E+00 0.00000E+00 0.00000E+00 0.00000E+00 0.00000E+00
  1.400 0.00000E+00 0.00000E+00 0.00000E+00 0.00000E+00 0.00000E+00
  1.500 0.00000E+00 0.00000E+00 0.00000E+00 0.00000E+00 0.00000E+00
  1.600 0.00000E+00 0.00000E+00 0.00000E+00 0.00000E+00 0.00000E+00
  1.700 0.00000E+00 0.00000E+00 0.00000E+00 0.00000E+00 0.00000E+00
  1.800 0.00000E+00 0.00000E+00 0.00000E+00 0.00000E+00 0.00000E+00
  1.900 0.00000E+00 0.00000E+00 0.00000E+00 0.00000E+00 0.00000E+00
  2.000 0.00000E+00 0.00000E+00 0.00000E+00 0.00000E+00 0.00000E+00
  2.200 0.00000E+00 0.00000E+00 0.00000E+00 0.00000E+00 0.00000E+00
  2.400 0.00000E+00 0.00000E+00 0.00000E+00 0.00000E+00 0.00000E+00
  2.600 1.40130E-45 0.00000E+00 1.40130E-45 0.00000E+00 0.00000E+00
  2.800 1.03136E-42 0.00000E+00 1.03136E-42 0.00000E+00 0.00000E+00
  3.000 4.02132E-40 0.00000E+00 4.02132E-40 0.00000E+00 0.00000E+00
  3.200 4.45505E-37 0.00000E+00 4.45505E-37 0.00000E+00 0.00000E+00
  3.400 5.67833E-35 0.00000E+00 5.67833E-35 0.00000E+00 0.00000E+00
  3.600 4.59655E-33 0.00000E+00 4.59655E-33 0.00000E+00 0.00000E+00
  3.800 2.52312E-31 0.00000E+00 2.52312E-31 0.00000E+00 0.00000E+00
  4.000 9.86693E-30 0.00000E+00 9.86693E-30 0.00000E+00 0.00000E+00
  4.500 2.75344E-26 0.00000E+00 2.75344E-26 0.00000E+00 0.00000E+00
  5.000 1.89731E-23 0.00000E+00 1.89731E-23 0.00000E+00 0.00000E+00
  5.500 4.47942E-21 0.00000E+00 4.47942E-21 0.00000E+00 0.00000E+00
  6.000 4.56438E-19 0.00000E+00 4.56438E-19 0.00000E+00 0.00000E+00
  6.500 2.37779E-17 0.00000E+00 2.37779E-17 0.00000E+00 0.00000E+00
  7.000 7.19916E-16 0.00000E+00 7.19916E-16 0.00000E+00 0.00000E+00
  7.500 1.39884E-14 0.00000E+00 1.39884E-14 0.00000E+00 0.00000E+00
  8.000 1.00651E-10 0.00000E+00 1.88773E-13 0.00000E+00 1.00462E-10
  8.500 3.15760E-09 0.00000E+00 1.88499E-12 0.00000E+00 3.15572E-09
  9.000 6.73658E-06 0.00000E+00 1.46555E-11 0.00000E+00 6.73657E-06
  9.500 3.10560E-05 0.00000E+00 9.24507E-11 0.00000E+00 3.10559E-05
 10.000 2.14662E-04 0.00000E+00 4.88885E-10 0.00000E+00 2.14661E-04
 10.500 7.89788E-04 0.00000E+00 2.22421E-09 0.00000E+00 7.89785E-04
 11.000 2.21121E-03 0.00000E+00 8.88997E-09 0.00000E+00 2.21120E-03
 11.500 3.96750E-03 0.00000E+00 3.17439E-08 0.00000E+00 3.96747E-03
 12.000 5.65718E-03 0.00000E+00 1.02719E-07 0.00000E+00 5.65708E-03
 12.500 7.19411E-03 0.00000E+00 3.04830E-07 0.00000E+00 7.19380E-03
 13.000 8.15865E-03 0.00000E+00 8.38479E-07 0.00000E+00 8.15781E-03
 13.500 9.84513E-03 0.00000E+00 2.15766E-06 0.00000E+00 9.84297E-03
 14.000 1.19464E-02 0.00000E+00 5.23771E-06 0.00000E+00 1.19412E-02
 14.500 1.45012E-02 0.00000E+00 1.20813E-05 0.00000E+00 1.44891E-02
 15.000 1.82651E-02 0.00000E+00 2.66465E-05 0.00000E+00 1.82385E-02
 15.500 2.43148E-02 0.00000E+00 5.64965E-05 0.00000E+00 2.42583E-02
 16.000 3.17570E-02 0.00000E+00 1.15634E-04 0.00000E+00 3.16414E-02
 16.500 3.93495E-02 0.00000E+00 2.29169E-04 0.00000E+00 3.91203E-02
 17.000 4.87362E-02 0.00000E+00 4.40622E-04 0.00000E+00 4.82956E-02
 17.500 6.33897E-02 0.00000E+00 8.22648E-04 0.00000E+00 6.25671E-02
 18.000 8.22559E-02 0.00000E+00 1.49065E-03 0.00000E+00 8.07652E-02
 18.500 1.04660E-01 0.00000E+00 2.61602E-03 0.00000E+00 1.02044E-01
 19.000 1.38534E-01 0.00000E+00 4.42920E-03 0.00000E+00 1.34105E-01
 19.500 1.80754E-01 0.00000E+00 1.29999E-02 0.00000E+00 1.67755E-01
 20.000 2.13129E-01 0.00000E+00 2.07845E-02 0.00000E+00 1.92344E-01
 21.000 2.17457E-01 0.00000E+00 3.41461E-02 0.00000E+00 1.83311E-01
 22.000 1.68546E-01 0.00000E+00 4.48055E-02 0.00000E+00 1.23740E-01
 23.000 1.25100E-01 0.00000E+00 5.30432E-02 0.00000E+00 7.20566E-02
 24.000 9.79295E-02 0.00000E+00 5.91283E-02 0.00000E+00 3.88012E-02
 25.000 8.46376E-02 0.00000E+00 6.33171E-02 0.00000E+00 2.13205E-02
 26.000 7.65271E-02 0.00000E+00 6.58514E-02 0.00000E+00 1.06757E-02
 27.000 7.26548E-02 0.00000E+00 6.69595E-02 0.00000E+00 5.69534E-03
 28.000 6.96152E-02 0.00000E+00 6.68537E-02 0.00000E+00 2.76151E-03
 29.000 6.71311E-02 0.00000E+00 6.57316E-02 0.00000E+00 1.39949E-03
 30.000 6.44522E-02 0.00000E+00 6.37748E-02 0.00000E+00 6.77383E-04
 31.000 6.14621E-02 0.00000E+00 6.11494E-02 0.00000E+00 3.12669E-04
 32.000 5.81634E-02 0.00000E+00 5.80055E-02 0.00000E+00 1.57917E-04
 33.000 5.45435E-02 0.00000E+00 5.44778E-02 0.00000E+00 6.56678E-05
 34.000 5.07201E-02 0.00000E+00 5.06853E-02 0.00000E+00 3.47848E-05
 35.000 4.67466E-02 0.00000E+00 4.67320E-02 0.00000E+00 1.45366E-05
 36.000 4.27226E-02 0.00000E+00 4.27154E-02 0.00000E+00 7.19814E-06
 37.000 3.87192E-02 0.00000E+00 3.87161E-02 0.00000E+00 3.07491E-06
 38.000 3.48002E-02 0.00000E+00 3.47988E-02 0.00000E+00 1.36023E-06
 39.000 3.10178E-02 0.00000E+00 3.10172E-02 0.00000E+00 6.16476E-07
 40.000 2.74148E-02 0.00000E+00 2.74145E-02 0.00000E+00 2.24059E-07
 42.000 2.08724E-02 0.00000E+00 2.08724E-02 0.00000E+00 4.01697E-08
 44.000 1.53423E-02 0.00000E+00 1.53423E-02 0.00000E+00 7.21741E-09
 46.000 1.08806E-02 0.00000E+00 1.08806E-02 0.00000E+00 1.21457E-09
 48.000 7.45274E-03 0.00000E+00 7.45274E-03 0.00000E+00 1.94435E-10
 50.000 4.90087E-03 0.00000E+00 4.90087E-03 0.00000E+00 0.00000E+00
 52.000 3.08070E-03 0.00000E+00 3.08070E-03 0.00000E+00 0.00000E+00
 54.000 1.84763E-03 0.00000E+00 1.84763E-03 0.00000E+00 0.00000E+00
 56.000 1.05345E-03 0.00000E+00 1.05345E-03 0.00000E+00 0.00000E+00
 58.000 5.66017E-04 0.00000E+00 5.66017E-04 0.00000E+00 0.00000E+00
 60.000 2.79406E-04 0.00000E+00 2.79406E-04 0.00000E+00 0.00000E+00
 62.000 1.24519E-04 0.00000E+00 1.24519E-04 0.00000E+00 0.00000E+00
 64.000 5.09239E-05 0.00000E+00 5.09239E-05 0.00000E+00 0.00000E+00
 66.000 1.85158E-05 0.00000E+00 1.85158E-05 0.00000E+00 0.00000E+00
 68.000 5.58114E-06 0.00000E+00 5.58114E-06 0.00000E+00 0.00000E+00
 70.000 1.13178E-06 0.00000E+00 1.13178E-06 0.00000E+00 0.00000E+00
 70.100 1.10166E-06 2.63615E-08 1.07530E-06 0.00000E+00 0.00000E+00
 70.200 1.05605E-06 3.72257E-08 1.01882E-06 0.00000E+00 0.00000E+00
 70.300 1.01361E-06 5.12696E-08 9.62340E-07 0.00000E+00 0.00000E+00
 70.400 9.74735E-07 6.88724E-08 9.05863E-07 0.00000E+00 0.00000E+00
 70.500 9.39637E-07 9.02521E-08 8.49385E-07 0.00000E+00 0.00000E+00
 70.600 9.08291E-07 1.15384E-07 7.92908E-07 0.00000E+00 0.00000E+00
 70.700 8.80363E-07 1.43932E-07 7.36430E-07 0.00000E+00 0.00000E+00
 70.800 8.55157E-07 1.75209E-07 6.79948E-07 0.00000E+00 0.00000E+00
 70.900 8.31621E-07 2.08150E-07 6.23471E-07 0.00000E+00 0.00000E+00
 71.000 8.08364E-07 2.41371E-07 5.66994E-07 0.00000E+00 0.00000E+00
 71.100 7.83750E-07 2.73234E-07 5.10516E-07 0.00000E+00 0.00000E+00
 71.200 7.56024E-07 3.01985E-07 4.54039E-07 0.00000E+00 0.00000E+00
 71.300 7.23467E-07 3.25910E-07 3.97557E-07 0.00000E+00 0.00000E+00
 71.400 6.84580E-07 3.43500E-07 3.41079E-07 0.00000E+00 0.00000E+00
 71.500 6.38222E-07 3.53620E-07 2.84602E-07 0.00000E+00 0.00000E+00
 71.600 5.83746E-07 3.55622E-07 2.28125E-07 0.00000E+00 0.00000E+00
 71.700 5.21065E-07 3.49418E-07 1.71647E-07 0.00000E+00 0.00000E+00
 71.800 4.50645E-07 3.35480E-07 1.15165E-07 0.00000E+00 0.00000E+00
 71.900 3.73475E-07 3.14787E-07 5.86879E-08 0.00000E+00 0.00000E+00
 72.000 2.90917E-07 2.88707E-07 2.21047E-09 0.00000E+00 0.00000E+00
 72.100 2.60948E-07 2.58848E-07 2.09994E-09 0.00000E+00 0.00000E+00
 72.200 2.28892E-07 2.26903E-07 1.98942E-09 0.00000E+00 0.00000E+00
 72.300 1.96365E-07 1.94487E-07 1.87889E-09 0.00000E+00 0.00000E+00
 72.400 1.64794E-07 1.63025E-07 1.76837E-09 0.00000E+00 0.00000E+00
 72.500 1.35311E-07 1.33653E-07 1.65785E-09 0.00000E+00 0.00000E+00
 72.600 1.08724E-07 1.07177E-07 1.54733E-09 0.00000E+00 0.00000E+00
 72.700 8.55109E-08 8.40741E-08 1.43681E-09 0.00000E+00 0.00000E+00
 72.800 6.58440E-08 6.45177E-08 1.32628E-09 0.00000E+00 0.00000E+00
 72.900 4.96546E-08 4.84388E-08 1.21575E-09 0.00000E+00 0.00000E+00
 73.000 3.66859E-08 3.55806E-08 1.10523E-09 0.00000E+00 0.00000E+00
 73.100 2.65658E-08 2.55711E-08 9.94712E-10 0.00000E+00 0.00000E+00
 73.200 1.88646E-08 1.79805E-08 8.84190E-10 0.00000E+00 0.00000E+00
 73.300 1.31431E-08 1.23695E-08 7.73660E-10 0.00000E+00 0.00000E+00
 73.400 8.98868E-09 8.32554E-09 6.63138E-10 0.00000E+00 0.00000E+00
 73.500 6.03482E-09 5.48220E-09 5.52617E-10 0.00000E+00 0.00000E+00
 73.600 3.97356E-09 3.53147E-09 4.42095E-10 0.00000E+00 0.00000E+00
 73.700 2.55685E-09 2.22527E-09 3.31573E-10 0.00000E+00 0.00000E+00
 73.800 1.59253E-09 1.37149E-09 2.21043E-10 0.00000E+00 0.00000E+00
 73.900 9.37274E-10 8.26752E-10 1.10522E-10 0.00000E+00 0.00000E+00
 74.000 4.87396E-10 4.87396E-10 0.00000E+00 0.00000E+00 0.00000E+00
 74.100 2.80978E-10 2.80978E-10 0.00000E+00 0.00000E+00 0.00000E+00
 74.200 1.58382E-10 1.58382E-10 0.00000E+00 0.00000E+00 0.00000E+00
 74.300 8.72823E-11 8.72823E-11 0.00000E+00 0.00000E+00 0.00000E+00
 74.400 4.70253E-11 4.70253E-11 0.00000E+00 0.00000E+00 0.00000E+00
 74.500 2.47666E-11 2.47666E-11 0.00000E+00 0.00000E+00 0.00000E+00
 74.600 1.27496E-11 1.27496E-11 0.00000E+00 0.00000E+00 0.00000E+00
 74.700 6.41491E-12 6.41491E-12 0.00000E+00 0.00000E+00 0.00000E+00
 74.800 3.15421E-12 3.15421E-12 0.00000E+00 0.00000E+00 0.00000E+00
 74.900 1.51572E-12 1.51572E-12 0.00000E+00 0.00000E+00 0.00000E+00
 75.000 7.11739E-13 7.11739E-13 0.00000E+00 0.00000E+00 0.00000E+00
 75.100 3.26571E-13 3.26571E-13 0.00000E+00 0.00000E+00 0.00000E+00
 75.200 1.46407E-13 1.46407E-13 0.00000E+00 0.00000E+00 0.00000E+00
 75.300 6.41253E-14 6.41253E-14 0.00000E+00 0.00000E+00 0.00000E+00
 75.400 2.74417E-14 2.74417E-14 0.00000E+00 0.00000E+00 0.00000E+00
 75.500 1.14726E-14 1.14726E-14 0.00000E+00 0.00000E+00 0.00000E+00
 75.600 4.68556E-15 4.68556E-15 0.00000E+00 0.00000E+00 0.00000E+00
 75.700 1.86935E-15 1.86935E-15 0.00000E+00 0.00000E+00 0.00000E+00
 75.800 7.28450E-16 7.28450E-16 0.00000E+00 0.00000E+00 0.00000E+00
 75.900 2.77286E-16 2.77286E-16 0.00000E+00 0.00000E+00 0.00000E+00
 76.000 1.03091E-16 1.03091E-16 0.00000E+00 0.00000E+00 0.00000E+00
 76.100 3.74335E-17 3.74335E-17 0.00000E+00 0.00000E+00 0.00000E+00
 76.200 1.32745E-17 1.32745E-17 0.00000E+00 0.00000E+00 0.00000E+00
 76.300 4.59658E-18 4.59658E-18 0.00000E+00 0.00000E+00 0.00000E+00
 76.400 1.55435E-18 1.55435E-18 0.00000E+00 0.00000E+00 0.00000E+00
 76.500 5.13217E-19 5.13217E-19 0.00000E+00 0.00000E+00 0.00000E+00
 76.600 1.65446E-19 1.65446E-19 0.00000E+00 0.00000E+00 0.00000E+00
 76.700 5.20698E-20 5.20698E-20 0.00000E+00 0.00000E+00 0.00000E+00
 76.800 1.59961E-20 1.59961E-20 0.00000E+00 0.00000E+00 0.00000E+00
 76.900 4.79718E-21 4.79718E-21 0.00000E+00 0.00000E+00 0.00000E+00
 77.000 1.40419E-21 1.40419E-21 0.00000E+00 0.00000E+00 0.00000E+00
 77.100 4.01146E-22 4.01146E-22 0.00000E+00 0.00000E+00 0.00000E+00
 77.200 1.11834E-22 1.11834E-22 0.00000E+00 0.00000E+00 0.00000E+00
 77.300 3.04205E-23 3.04205E-23 0.00000E+00 0.00000E+00 0.00000E+00
 77.400 8.07468E-24 8.07468E-24 0.00000E+00 0.00000E+00 0.00000E+00
 77.500 2.09110E-24 2.09110E-24 0.00000E+00 0.00000E+00 0.00000E+00
 77.600 5.28298E-25 5.28298E-25 0.00000E+00 0.00000E+00 0.00000E+00
 77.700 1.30198E-25 1.30198E-25 0.00000E+00 0.00000E+00 0.00000E+00
 77.800 3.12946E-26 3.12946E-26 0.00000E+00 0.00000E+00 0.00000E+00
 77.900 7.33730E-27 7.33730E-27 0.00000E+00 0.00000E+00 0.00000E+00
 78.000 1.67775E-27 1.67775E-27 0.00000E+00 0.00000E+00 0.00000E+00
 78.100 3.74123E-28 3.74123E-28 0.00000E+00 0.00000E+00 0.00000E+00
 78.200 8.13518E-29 8.13518E-29 0.00000E+00 0.00000E+00 0.00000E+00
 78.300 1.72467E-29 1.72467E-29 0.00000E+00 0.00000E+00 0.00000E+00
 78.400 3.56542E-30 3.56542E-30 0.00000E+00 0.00000E+00 0.00000E+00
 78.500 7.18629E-31 7.18629E-31 0.00000E+00 0.00000E+00 0.00000E+00
 78.600 1.41210E-31 1.41210E-31 0.00000E+00 0.00000E+00 0.00000E+00
 78.700 2.70501E-32 2.70501E-32 0.00000E+00 0.00000E+00 0.00000E+00
 78.800 5.05058E-33 5.05058E-33 0.00000E+00 0.00000E+00 0.00000E+00
 78.900 9.19339E-34 9.19339E-34 0.00000E+00 0.00000E+00 0.00000E+00
 79.000 1.63117E-34 1.63117E-34 0.00000E+00 0.00000E+00 0.00000E+00
 79.100 2.82093E-35 2.82093E-35 0.00000E+00 0.00000E+00 0.00000E+00
 79.200 4.75492E-36 4.75492E-36 0.00000E+00 0.00000E+00 0.00000E+00
 79.300 7.81047E-37 7.81047E-37 0.00000E+00 0.00000E+00 0.00000E+00
 79.400 1.25055E-37 1.25055E-37 0.00000E+00 0.00000E+00 0.00000E+00
 79.500 1.95138E-38 1.95138E-38 0.00000E+00 0.00000E+00 0.00000E+00
 79.600 2.96748E-39 2.96748E-39 0.00000E+00 0.00000E+00 0.00000E+00
 79.700 4.39777E-40 4.39777E-40 0.00000E+00 0.00000E+00 0.00000E+00
 79.800 6.35026E-41 6.35026E-41 0.00000E+00 0.00000E+00 0.00000E+00
 79.900 8.93748E-42 8.93748E-42 0.00000E+00 0.00000E+00 0.00000E+00
 80.000 1.22614E-42 1.22614E-42 0.00000E+00 0.00000E+00 0.00000E+00
 80.100 1.62551E-43 1.62551E-43 0.00000E+00 0.00000E+00 0.00000E+00
 80.200 2.10195E-44 2.10195E-44 0.00000E+00 0.00000E+00 0.00000E+00
 80.300 2.80260E-45 2.80260E-45 0.00000E+00 0.00000E+00 0.00000E+00
 80.400 0.00000E+00 0.00000E+00 0.00000E+00 0.00000E+00 0.00000E+00
 80.500 0.00000E+00 0.00000E+00 0.00000E+00 0.00000E+00 0.00000E+00
 80.600 0.00000E+00 0.00000E+00 0.00000E+00 0.00000E+00 0.00000E+00
 80.700 0.00000E+00 0.00000E+00 0.00000E+00 0.00000E+00 0.00000E+00
 80.800 0.00000E+00 0.00000E+00 0.00000E+00 0.00000E+00 0.00000E+00
 80.900 0.00000E+00 0.00000E+00 0.00000E+00 0.00000E+00 0.00000E+00
 81.000 0.00000E+00 0.00000E+00 0.00000E+00 0.00000E+00 0.00000E+00
 81.100 0.00000E+00 0.00000E+00 0.00000E+00 0.00000E+00 0.00000E+00
 81.200 0.00000E+00 0.00000E+00 0.00000E+00 0.00000E+00 0.00000E+00
 81.300 0.00000E+00 0.00000E+00 0.00000E+00 0.00000E+00 0.00000E+00
 81.400 0.00000E+00 0.00000E+00 0.00000E+00 0.00000E+00 0.00000E+00
 81.500 0.00000E+00 0.00000E+00 0.00000E+00 0.00000E+00 0.00000E+00
 81.600 0.00000E+00 0.00000E+00 0.00000E+00 0.00000E+00 0.00000E+00
 81.700 0.00000E+00 0.00000E+00 0.00000E+00 0.00000E+00 0.00000E+00
 81.800 0.00000E+00 0.00000E+00 0.00000E+00 0.00000E+00 0.00000E+00
 81.900 0.00000E+00 0.00000E+00 0.00000E+00 0.00000E+00 0.00000E+00
 82.000 0.00000E+00 0.00000E+00 0.00000E+00 0.00000E+00 0.00000E+00
