# n + 209Bi: alpha    DDX spectrum
# E-incident =  63.000
# Angle      = 110.000
# # energies =211
# E-out    Total       Direct    Pre-equil.  Mult. preeq  Compound
  0.700 0.00000E+00 0.00000E+00 0.00000E+00 0.00000E+00 0.00000E+00
  0.800 0.00000E+00 0.00000E+00 0.00000E+00 0.00000E+00 0.00000E+00
  0.900 0.00000E+00 0.00000E+00 0.00000E+00 0.00000E+00 0.00000E+00
  1.000 0.00000E+00 0.00000E+00 0.00000E+00 0.00000E+00 0.00000E+00
  1.100 0.00000E+00 0.00000E+00 0.00000E+00 0.00000E+00 0.00000E+00
  1.200 0.00000E+00 0.00000E+00 0.00000E+00 0.00000E+00 0.00000E+00
  1.300 0.00000E+00 0.00000E+00 0.00000E+00 0.00000E+00 0.00000E+00
  1.400 0.00000E+00 0.00000E+00 0.00000E+00 0.00000E+00 0.00000E+00
  1.500 0.00000E+00 0.00000E+00 0.00000E+00 0.00000E+00 0.00000E+00
  1.600 0.00000E+00 0.00000E+00 0.00000E+00 0.00000E+00 0.00000E+00
  1.700 0.00000E+00 0.00000E+00 0.00000E+00 0.00000E+00 0.00000E+00
  1.800 0.00000E+00 0.00000E+00 0.00000E+00 0.00000E+00 0.00000E+00
  1.900 0.00000E+00 0.00000E+00 0.00000E+00 0.00000E+00 0.00000E+00
  2.000 0.00000E+00 0.00000E+00 0.00000E+00 0.00000E+00 0.00000E+00
  2.200 0.00000E+00 0.00000E+00 0.00000E+00 0.00000E+00 0.00000E+00
  2.400 0.00000E+00 0.00000E+00 0.00000E+00 0.00000E+00 0.00000E+00
  2.600 0.00000E+00 0.00000E+00 0.00000E+00 0.00000E+00 0.00000E+00
  2.800 4.87652E-43 0.00000E+00 4.87652E-43 0.00000E+00 0.00000E+00
  3.000 1.89355E-40 0.00000E+00 1.89355E-40 0.00000E+00 0.00000E+00
  3.200 2.09268E-37 0.00000E+00 2.09268E-37 0.00000E+00 0.00000E+00
  3.400 2.66096E-35 0.00000E+00 2.66096E-35 0.00000E+00 0.00000E+00
  3.600 2.14917E-33 0.00000E+00 2.14917E-33 0.00000E+00 0.00000E+00
  3.800 1.17703E-31 0.00000E+00 1.17703E-31 0.00000E+00 0.00000E+00
  4.000 4.59233E-30 0.00000E+00 4.59233E-30 0.00000E+00 0.00000E+00
  4.500 1.27442E-26 0.00000E+00 1.27442E-26 0.00000E+00 0.00000E+00
  5.000 8.73380E-24 0.00000E+00 8.73380E-24 0.00000E+00 0.00000E+00
  5.500 2.05084E-21 0.00000E+00 2.05084E-21 0.00000E+00 0.00000E+00
  6.000 2.07870E-19 0.00000E+00 2.07870E-19 0.00000E+00 0.00000E+00
  6.500 1.07726E-17 0.00000E+00 1.07726E-17 0.00000E+00 0.00000E+00
  7.000 3.24491E-16 0.00000E+00 3.24491E-16 0.00000E+00 0.00000E+00
  7.500 6.27354E-15 0.00000E+00 6.27354E-15 0.00000E+00 0.00000E+00
  8.000 1.71885E-11 0.00000E+00 8.42471E-14 0.00000E+00 1.71042E-11
  8.500 9.05033E-10 0.00000E+00 8.37176E-13 0.00000E+00 9.04196E-10
  9.000 1.16702E-06 0.00000E+00 6.47850E-12 0.00000E+00 1.16702E-06
  9.500 2.83748E-05 0.00000E+00 4.06805E-11 0.00000E+00 2.83747E-05
 10.000 1.76218E-04 0.00000E+00 2.14156E-10 0.00000E+00 1.76218E-04
 10.500 5.65752E-04 0.00000E+00 9.70132E-10 0.00000E+00 5.65751E-04
 11.000 1.21664E-03 0.00000E+00 3.86100E-09 0.00000E+00 1.21663E-03
 11.500 2.14650E-03 0.00000E+00 1.37304E-08 0.00000E+00 2.14649E-03
 12.000 2.91371E-03 0.00000E+00 4.42515E-08 0.00000E+00 2.91366E-03
 12.500 3.72977E-03 0.00000E+00 1.30816E-07 0.00000E+00 3.72964E-03
 13.000 4.63047E-03 0.00000E+00 3.58491E-07 0.00000E+00 4.63011E-03
 13.500 6.27285E-03 0.00000E+00 9.19237E-07 0.00000E+00 6.27194E-03
 14.000 8.39722E-03 0.00000E+00 2.22375E-06 0.00000E+00 8.39499E-03
 14.500 1.12897E-02 0.00000E+00 5.11237E-06 0.00000E+00 1.12846E-02
 15.000 1.53813E-02 0.00000E+00 1.12406E-05 0.00000E+00 1.53700E-02
 15.500 2.06602E-02 0.00000E+00 2.37609E-05 0.00000E+00 2.06364E-02
 16.000 2.71156E-02 0.00000E+00 4.84946E-05 0.00000E+00 2.70671E-02
 16.500 3.45561E-02 0.00000E+00 9.58550E-05 0.00000E+00 3.44602E-02
 17.000 4.31298E-02 0.00000E+00 1.83830E-04 0.00000E+00 4.29460E-02
 17.500 5.31535E-02 0.00000E+00 3.42410E-04 0.00000E+00 5.28111E-02
 18.000 6.30876E-02 0.00000E+00 6.19103E-04 0.00000E+00 6.24685E-02
 18.500 7.20492E-02 0.00000E+00 1.08434E-03 0.00000E+00 7.09648E-02
 19.000 8.05428E-02 0.00000E+00 1.83255E-03 0.00000E+00 7.87103E-02
 19.500 8.68403E-02 0.00000E+00 2.97145E-03 0.00000E+00 8.38689E-02
 20.000 8.91374E-02 0.00000E+00 4.59395E-03 0.00000E+00 8.45435E-02
 21.000 8.47253E-02 0.00000E+00 9.35027E-03 0.00000E+00 7.53750E-02
 22.000 7.10953E-02 0.00000E+00 1.54332E-02 0.00000E+00 5.56622E-02
 23.000 5.59326E-02 0.00000E+00 2.15958E-02 0.00000E+00 3.43368E-02
 24.000 4.57479E-02 0.00000E+00 2.69824E-02 0.00000E+00 1.87654E-02
 25.000 4.04744E-02 0.00000E+00 3.12655E-02 0.00000E+00 9.20882E-03
 26.000 3.87466E-02 0.00000E+00 3.44152E-02 0.00000E+00 4.33137E-03
 27.000 3.84547E-02 0.00000E+00 3.65219E-02 0.00000E+00 1.93281E-03
 28.000 3.85594E-02 0.00000E+00 3.77145E-02 0.00000E+00 8.44919E-04
 29.000 3.84911E-02 0.00000E+00 3.81247E-02 0.00000E+00 3.66412E-04
 30.000 3.80290E-02 0.00000E+00 3.78774E-02 0.00000E+00 1.51535E-04
 31.000 3.71497E-02 0.00000E+00 3.70849E-02 0.00000E+00 6.47349E-05
 32.000 3.58756E-02 0.00000E+00 3.58494E-02 0.00000E+00 2.61867E-05
 33.000 3.42736E-02 0.00000E+00 3.42626E-02 0.00000E+00 1.09846E-05
 34.000 3.24091E-02 0.00000E+00 3.24048E-02 0.00000E+00 4.37831E-06
 35.000 3.03494E-02 0.00000E+00 3.03475E-02 0.00000E+00 1.82986E-06
 36.000 2.81530E-02 0.00000E+00 2.81523E-02 0.00000E+00 7.31704E-07
 37.000 2.58723E-02 0.00000E+00 2.58720E-02 0.00000E+00 3.02720E-07
 38.000 2.35527E-02 0.00000E+00 2.35525E-02 0.00000E+00 1.18330E-07
 39.000 2.12320E-02 0.00000E+00 2.12320E-02 0.00000E+00 4.94009E-08
 40.000 1.89838E-02 0.00000E+00 1.89838E-02 0.00000E+00 1.69143E-08
 42.000 1.48257E-02 0.00000E+00 1.48257E-02 0.00000E+00 2.75603E-09
 44.000 1.12169E-02 0.00000E+00 1.12169E-02 0.00000E+00 4.11983E-10
 46.000 8.21095E-03 0.00000E+00 8.21095E-03 0.00000E+00 0.00000E+00
 48.000 5.80386E-03 0.00000E+00 5.80386E-03 0.00000E+00 0.00000E+00
 50.000 3.95094E-03 0.00000E+00 3.95094E-03 0.00000E+00 0.00000E+00
 52.000 2.58157E-03 0.00000E+00 2.58157E-03 0.00000E+00 0.00000E+00
 54.000 1.61223E-03 0.00000E+00 1.61223E-03 0.00000E+00 0.00000E+00
 56.000 9.57132E-04 0.00000E+00 9.57132E-04 0.00000E+00 0.00000E+00
 58.000 5.36336E-04 0.00000E+00 5.36336E-04 0.00000E+00 0.00000E+00
 60.000 2.80939E-04 0.00000E+00 2.80939E-04 0.00000E+00 0.00000E+00
 62.000 1.35654E-04 0.00000E+00 1.35654E-04 0.00000E+00 0.00000E+00
 64.000 5.90839E-05 0.00000E+00 5.90839E-05 0.00000E+00 0.00000E+00
 66.000 2.23556E-05 0.00000E+00 2.23556E-05 0.00000E+00 0.00000E+00
 68.000 6.80306E-06 0.00000E+00 6.80306E-06 0.00000E+00 0.00000E+00
 70.000 1.33963E-06 0.00000E+00 1.33963E-06 0.00000E+00 0.00000E+00
 70.100 1.30396E-06 3.11560E-08 1.27281E-06 0.00000E+00 0.00000E+00
 70.200 1.24999E-06 4.40029E-08 1.20598E-06 0.00000E+00 0.00000E+00
 70.300 1.19977E-06 6.06133E-08 1.13915E-06 0.00000E+00 0.00000E+00
 70.400 1.15377E-06 8.14379E-08 1.07233E-06 0.00000E+00 0.00000E+00
 70.500 1.11225E-06 1.06737E-07 1.00551E-06 0.00000E+00 0.00000E+00
 70.600 1.07517E-06 1.36486E-07 9.38685E-07 0.00000E+00 0.00000E+00
 70.700 1.04215E-06 1.70290E-07 8.71862E-07 0.00000E+00 0.00000E+00
 70.800 1.01237E-06 2.07339E-07 8.05034E-07 0.00000E+00 0.00000E+00
 70.900 9.84591E-07 2.46380E-07 7.38211E-07 0.00000E+00 0.00000E+00
 71.000 9.57163E-07 2.85775E-07 6.71388E-07 0.00000E+00 0.00000E+00
 71.100 9.28155E-07 3.23590E-07 6.04565E-07 0.00000E+00 0.00000E+00
 71.200 8.95490E-07 3.57749E-07 5.37742E-07 0.00000E+00 0.00000E+00
 71.300 8.57134E-07 3.86220E-07 4.70914E-07 0.00000E+00 0.00000E+00
 71.400 8.11304E-07 4.07214E-07 4.04091E-07 0.00000E+00 0.00000E+00
 71.500 7.56647E-07 4.19379E-07 3.37267E-07 0.00000E+00 0.00000E+00
 71.600 6.92385E-07 4.21940E-07 2.70444E-07 0.00000E+00 0.00000E+00
 71.700 6.18403E-07 4.14782E-07 2.03621E-07 0.00000E+00 0.00000E+00
 71.800 5.35245E-07 3.98451E-07 1.36793E-07 0.00000E+00 0.00000E+00
 71.900 4.44067E-07 3.74097E-07 6.99702E-08 0.00000E+00 0.00000E+00
 72.000 3.46475E-07 3.43328E-07 3.14713E-09 0.00000E+00 0.00000E+00
 72.100 3.11034E-07 3.08044E-07 2.98978E-09 0.00000E+00 0.00000E+00
 72.200 2.73074E-07 2.70242E-07 2.83242E-09 0.00000E+00 0.00000E+00
 72.300 2.34512E-07 2.31837E-07 2.67506E-09 0.00000E+00 0.00000E+00
 72.400 1.97038E-07 1.94520E-07 2.51770E-09 0.00000E+00 0.00000E+00
 72.500 1.62001E-07 1.59641E-07 2.36035E-09 0.00000E+00 0.00000E+00
 72.600 1.30367E-07 1.28164E-07 2.20299E-09 0.00000E+00 0.00000E+00
 72.700 1.02708E-07 1.00662E-07 2.04564E-09 0.00000E+00 0.00000E+00
 72.800 7.92401E-08 7.73518E-08 1.88827E-09 0.00000E+00 0.00000E+00
 72.900 5.98905E-08 5.81596E-08 1.73092E-09 0.00000E+00 0.00000E+00
 73.000 4.43621E-08 4.27885E-08 1.57357E-09 0.00000E+00 0.00000E+00
 73.100 3.22197E-08 3.08035E-08 1.41621E-09 0.00000E+00 0.00000E+00
 73.200 2.29580E-08 2.16992E-08 1.25886E-09 0.00000E+00 0.00000E+00
 73.300 1.60583E-08 1.49568E-08 1.10149E-09 0.00000E+00 0.00000E+00
 73.400 1.10320E-08 1.00879E-08 9.44137E-10 0.00000E+00 0.00000E+00
 73.500 7.44412E-09 6.65734E-09 7.86783E-10 0.00000E+00 0.00000E+00
 73.600 4.92790E-09 4.29847E-09 6.29428E-10 0.00000E+00 0.00000E+00
 73.700 3.18735E-09 2.71527E-09 4.72074E-10 0.00000E+00 0.00000E+00
 73.800 1.99254E-09 1.67783E-09 3.14708E-10 0.00000E+00 0.00000E+00
 73.900 1.17154E-09 1.01419E-09 1.57354E-10 0.00000E+00 0.00000E+00
 74.000 5.99608E-10 5.99608E-10 0.00000E+00 0.00000E+00 0.00000E+00
 74.100 3.46702E-10 3.46702E-10 0.00000E+00 0.00000E+00 0.00000E+00
 74.200 1.96040E-10 1.96040E-10 0.00000E+00 0.00000E+00 0.00000E+00
 74.300 1.08386E-10 1.08386E-10 0.00000E+00 0.00000E+00 0.00000E+00
 74.400 5.85921E-11 5.85921E-11 0.00000E+00 0.00000E+00 0.00000E+00
 74.500 3.09662E-11 3.09662E-11 0.00000E+00 0.00000E+00 0.00000E+00
 74.600 1.59985E-11 1.59985E-11 0.00000E+00 0.00000E+00 0.00000E+00
 74.700 8.07945E-12 8.07945E-12 0.00000E+00 0.00000E+00 0.00000E+00
 74.800 3.98782E-12 3.98782E-12 0.00000E+00 0.00000E+00 0.00000E+00
 74.900 1.92378E-12 1.92378E-12 0.00000E+00 0.00000E+00 0.00000E+00
 75.000 9.06959E-13 9.06959E-13 0.00000E+00 0.00000E+00 0.00000E+00
 75.100 4.17835E-13 4.17835E-13 0.00000E+00 0.00000E+00 0.00000E+00
 75.200 1.88096E-13 1.88096E-13 0.00000E+00 0.00000E+00 0.00000E+00
 75.300 8.27289E-14 8.27289E-14 0.00000E+00 0.00000E+00 0.00000E+00
 75.400 3.55522E-14 3.55522E-14 0.00000E+00 0.00000E+00 0.00000E+00
 75.500 1.49264E-14 1.49264E-14 0.00000E+00 0.00000E+00 0.00000E+00
 75.600 6.12203E-15 6.12203E-15 0.00000E+00 0.00000E+00 0.00000E+00
 75.700 2.45281E-15 2.45281E-15 0.00000E+00 0.00000E+00 0.00000E+00
 75.800 9.59850E-16 9.59850E-16 0.00000E+00 0.00000E+00 0.00000E+00
 75.900 3.66899E-16 3.66899E-16 0.00000E+00 0.00000E+00 0.00000E+00
 76.000 1.36973E-16 1.36973E-16 0.00000E+00 0.00000E+00 0.00000E+00
 76.100 4.99389E-17 4.99389E-17 0.00000E+00 0.00000E+00 0.00000E+00
 76.200 1.77799E-17 1.77799E-17 0.00000E+00 0.00000E+00 0.00000E+00
 76.300 6.18069E-18 6.18069E-18 0.00000E+00 0.00000E+00 0.00000E+00
 76.400 2.09798E-18 2.09798E-18 0.00000E+00 0.00000E+00 0.00000E+00
 76.500 6.95266E-19 6.95266E-19 0.00000E+00 0.00000E+00 0.00000E+00
 76.600 2.24933E-19 2.24933E-19 0.00000E+00 0.00000E+00 0.00000E+00
 76.700 7.10352E-20 7.10352E-20 0.00000E+00 0.00000E+00 0.00000E+00
 76.800 2.18944E-20 2.18944E-20 0.00000E+00 0.00000E+00 0.00000E+00
 76.900 6.58685E-21 6.58685E-21 0.00000E+00 0.00000E+00 0.00000E+00
 77.000 1.93387E-21 1.93387E-21 0.00000E+00 0.00000E+00 0.00000E+00
 77.100 5.54052E-22 5.54052E-22 0.00000E+00 0.00000E+00 0.00000E+00
 77.200 1.54884E-22 1.54884E-22 0.00000E+00 0.00000E+00 0.00000E+00
 77.300 4.22395E-23 4.22395E-23 0.00000E+00 0.00000E+00 0.00000E+00
 77.400 1.12392E-23 1.12392E-23 0.00000E+00 0.00000E+00 0.00000E+00
 77.500 2.91731E-24 2.91731E-24 0.00000E+00 0.00000E+00 0.00000E+00
 77.600 7.38628E-25 7.38628E-25 0.00000E+00 0.00000E+00 0.00000E+00
 77.700 1.82403E-25 1.82403E-25 0.00000E+00 0.00000E+00 0.00000E+00
 77.800 4.39260E-26 4.39260E-26 0.00000E+00 0.00000E+00 0.00000E+00
 77.900 1.03172E-26 1.03172E-26 0.00000E+00 0.00000E+00 0.00000E+00
 78.000 2.36305E-27 2.36305E-27 0.00000E+00 0.00000E+00 0.00000E+00
 78.100 5.27755E-28 5.27755E-28 0.00000E+00 0.00000E+00 0.00000E+00
 78.200 1.14924E-28 1.14924E-28 0.00000E+00 0.00000E+00 0.00000E+00
 78.300 2.43969E-29 2.43969E-29 0.00000E+00 0.00000E+00 0.00000E+00
 78.400 5.04987E-30 5.04987E-30 0.00000E+00 0.00000E+00 0.00000E+00
 78.500 1.01901E-30 1.01901E-30 0.00000E+00 0.00000E+00 0.00000E+00
 78.600 2.00450E-31 2.00450E-31 0.00000E+00 0.00000E+00 0.00000E+00
 78.700 3.84367E-32 3.84367E-32 0.00000E+00 0.00000E+00 0.00000E+00
 78.800 7.18330E-33 7.18330E-33 0.00000E+00 0.00000E+00 0.00000E+00
 78.900 1.30868E-33 1.30868E-33 0.00000E+00 0.00000E+00 0.00000E+00
 79.000 2.32384E-34 2.32384E-34 0.00000E+00 0.00000E+00 0.00000E+00
 79.100 4.02184E-35 4.02184E-35 0.00000E+00 0.00000E+00 0.00000E+00
 79.200 6.78388E-36 6.78388E-36 0.00000E+00 0.00000E+00 0.00000E+00
 79.300 1.11505E-36 1.11505E-36 0.00000E+00 0.00000E+00 0.00000E+00
 79.400 1.78640E-37 1.78640E-37 0.00000E+00 0.00000E+00 0.00000E+00
 79.500 2.78910E-38 2.78910E-38 0.00000E+00 0.00000E+00 0.00000E+00
 79.600 4.24366E-39 4.24366E-39 0.00000E+00 0.00000E+00 0.00000E+00
 79.700 6.29212E-40 6.29212E-40 0.00000E+00 0.00000E+00 0.00000E+00
 79.800 9.09008E-41 9.09008E-41 0.00000E+00 0.00000E+00 0.00000E+00
 79.900 1.27981E-41 1.27981E-41 0.00000E+00 0.00000E+00 0.00000E+00
 80.000 1.75723E-42 1.75723E-42 0.00000E+00 0.00000E+00 0.00000E+00
 80.100 2.34017E-43 2.34017E-43 0.00000E+00 0.00000E+00 0.00000E+00
 80.200 3.08286E-44 3.08286E-44 0.00000E+00 0.00000E+00 0.00000E+00
 80.300 4.20390E-45 4.20390E-45 0.00000E+00 0.00000E+00 0.00000E+00
 80.400 0.00000E+00 0.00000E+00 0.00000E+00 0.00000E+00 0.00000E+00
 80.500 0.00000E+00 0.00000E+00 0.00000E+00 0.00000E+00 0.00000E+00
 80.600 0.00000E+00 0.00000E+00 0.00000E+00 0.00000E+00 0.00000E+00
 80.700 0.00000E+00 0.00000E+00 0.00000E+00 0.00000E+00 0.00000E+00
 80.800 0.00000E+00 0.00000E+00 0.00000E+00 0.00000E+00 0.00000E+00
 80.900 0.00000E+00 0.00000E+00 0.00000E+00 0.00000E+00 0.00000E+00
 81.000 0.00000E+00 0.00000E+00 0.00000E+00 0.00000E+00 0.00000E+00
 81.100 0.00000E+00 0.00000E+00 0.00000E+00 0.00000E+00 0.00000E+00
 81.200 0.00000E+00 0.00000E+00 0.00000E+00 0.00000E+00 0.00000E+00
 81.300 0.00000E+00 0.00000E+00 0.00000E+00 0.00000E+00 0.00000E+00
 81.400 0.00000E+00 0.00000E+00 0.00000E+00 0.00000E+00 0.00000E+00
 81.500 0.00000E+00 0.00000E+00 0.00000E+00 0.00000E+00 0.00000E+00
 81.600 0.00000E+00 0.00000E+00 0.00000E+00 0.00000E+00 0.00000E+00
 81.700 0.00000E+00 0.00000E+00 0.00000E+00 0.00000E+00 0.00000E+00
 81.800 0.00000E+00 0.00000E+00 0.00000E+00 0.00000E+00 0.00000E+00
 81.900 0.00000E+00 0.00000E+00 0.00000E+00 0.00000E+00 0.00000E+00
 82.000 0.00000E+00 0.00000E+00 0.00000E+00 0.00000E+00 0.00000E+00
