# n + 209Bi: alpha    DDX spectrum
# E-incident =  63.000
# 
# # energies =211
# E-out    Total       Direct    Pre-equil.  Mult. preeq  Compound
  0.700 0.00000E+00 0.00000E+00 0.00000E+00 0.00000E+00 0.00000E+00
  0.800 0.00000E+00 0.00000E+00 0.00000E+00 0.00000E+00 0.00000E+00
  0.900 0.00000E+00 0.00000E+00 0.00000E+00 0.00000E+00 0.00000E+00
  1.000 0.00000E+00 0.00000E+00 0.00000E+00 0.00000E+00 0.00000E+00
  1.100 0.00000E+00 0.00000E+00 0.00000E+00 0.00000E+00 0.00000E+00
  1.200 0.00000E+00 0.00000E+00 0.00000E+00 0.00000E+00 0.00000E+00
  1.300 0.00000E+00 0.00000E+00 0.00000E+00 0.00000E+00 0.00000E+00
  1.400 0.00000E+00 0.00000E+00 0.00000E+00 0.00000E+00 0.00000E+00
  1.500 0.00000E+00 0.00000E+00 0.00000E+00 0.00000E+00 0.00000E+00
  1.600 0.00000E+00 0.00000E+00 0.00000E+00 0.00000E+00 0.00000E+00
  1.700 0.00000E+00 0.00000E+00 0.00000E+00 0.00000E+00 0.00000E+00
  1.800 0.00000E+00 0.00000E+00 0.00000E+00 0.00000E+00 0.00000E+00
  1.900 0.00000E+00 0.00000E+00 0.00000E+00 0.00000E+00 0.00000E+00
  2.000 0.00000E+00 0.00000E+00 0.00000E+00 0.00000E+00 0.00000E+00
  2.200 0.00000E+00 0.00000E+00 0.00000E+00 0.00000E+00 0.00000E+00
  2.400 0.00000E+00 0.00000E+00 0.00000E+00 0.00000E+00 0.00000E+00
  2.600 0.00000E+00 0.00000E+00 0.00000E+00 0.00000E+00 0.00000E+00
  2.800 4.76441E-43 0.00000E+00 4.76441E-43 0.00000E+00 0.00000E+00
  3.000 1.86504E-40 0.00000E+00 1.86504E-40 0.00000E+00 0.00000E+00
  3.200 2.07184E-37 0.00000E+00 2.07184E-37 0.00000E+00 0.00000E+00
  3.400 2.64912E-35 0.00000E+00 2.64912E-35 0.00000E+00 0.00000E+00
  3.600 2.15138E-33 0.00000E+00 2.15138E-33 0.00000E+00 0.00000E+00
  3.800 1.18465E-31 0.00000E+00 1.18465E-31 0.00000E+00 0.00000E+00
  4.000 4.64766E-30 0.00000E+00 4.64766E-30 0.00000E+00 0.00000E+00
  4.500 1.30753E-26 0.00000E+00 1.30753E-26 0.00000E+00 0.00000E+00
  5.000 9.08387E-24 0.00000E+00 9.08387E-24 0.00000E+00 0.00000E+00
  5.500 2.16247E-21 0.00000E+00 2.16247E-21 0.00000E+00 0.00000E+00
  6.000 2.22208E-19 0.00000E+00 2.22208E-19 0.00000E+00 0.00000E+00
  6.500 1.16745E-17 0.00000E+00 1.16745E-17 0.00000E+00 0.00000E+00
  7.000 3.56502E-16 0.00000E+00 3.56502E-16 0.00000E+00 0.00000E+00
  7.500 6.98782E-15 0.00000E+00 6.98782E-15 0.00000E+00 0.00000E+00
  8.000 3.09721E-11 0.00000E+00 9.51385E-14 0.00000E+00 3.08769E-11
  8.500 8.92892E-10 0.00000E+00 9.58463E-13 0.00000E+00 8.91934E-10
  9.000 6.31874E-07 0.00000E+00 7.51985E-12 0.00000E+00 6.31867E-07
  9.500 1.20155E-05 0.00000E+00 4.78746E-11 0.00000E+00 1.20155E-05
 10.000 7.51745E-05 0.00000E+00 2.55531E-10 0.00000E+00 7.51743E-05
 10.500 2.40583E-04 0.00000E+00 1.17366E-09 0.00000E+00 2.40582E-04
 11.000 5.28097E-04 0.00000E+00 4.73632E-09 0.00000E+00 5.28093E-04
 11.500 9.85978E-04 0.00000E+00 1.70786E-08 0.00000E+00 9.85961E-04
 12.000 1.45261E-03 0.00000E+00 5.58146E-08 0.00000E+00 1.45256E-03
 12.500 2.01080E-03 0.00000E+00 1.67317E-07 0.00000E+00 2.01064E-03
 13.000 2.55902E-03 0.00000E+00 4.65004E-07 0.00000E+00 2.55855E-03
 13.500 3.47020E-03 0.00000E+00 1.20917E-06 0.00000E+00 3.46899E-03
 14.000 4.66287E-03 0.00000E+00 2.96688E-06 0.00000E+00 4.65990E-03
 14.500 6.11277E-03 0.00000E+00 6.91802E-06 0.00000E+00 6.10585E-03
 15.000 7.98134E-03 0.00000E+00 1.54288E-05 0.00000E+00 7.96591E-03
 15.500 1.07605E-02 0.00000E+00 3.30838E-05 0.00000E+00 1.07274E-02
 16.000 1.41575E-02 0.00000E+00 6.84977E-05 0.00000E+00 1.40890E-02
 16.500 1.77027E-02 0.00000E+00 1.37367E-04 0.00000E+00 1.75654E-02
 17.000 2.20328E-02 0.00000E+00 2.67284E-04 0.00000E+00 2.17656E-02
 17.500 2.81845E-02 0.00000E+00 5.05183E-04 0.00000E+00 2.76793E-02
 18.000 3.41364E-02 0.00000E+00 9.26932E-04 0.00000E+00 3.32094E-02
 18.500 3.97677E-02 0.00000E+00 1.64769E-03 0.00000E+00 3.81200E-02
 19.000 4.60464E-02 0.00000E+00 2.82640E-03 0.00000E+00 4.32200E-02
 19.500 5.21329E-02 0.00000E+00 4.65217E-03 0.00000E+00 4.74807E-02
 20.000 5.71148E-02 0.00000E+00 7.30202E-03 0.00000E+00 4.98128E-02
 21.000 6.28373E-02 0.00000E+00 1.53244E-02 0.00000E+00 4.75129E-02
 22.000 6.47449E-02 0.00000E+00 2.60936E-02 0.00000E+00 3.86514E-02
 23.000 6.42923E-02 0.00000E+00 3.76902E-02 0.00000E+00 2.66021E-02
 24.000 6.49885E-02 0.00000E+00 4.86423E-02 0.00000E+00 1.63463E-02
 25.000 6.77162E-02 0.00000E+00 5.82604E-02 0.00000E+00 9.45577E-03
 26.000 7.13459E-02 0.00000E+00 6.63406E-02 0.00000E+00 5.00535E-03
 27.000 7.55996E-02 0.00000E+00 7.28903E-02 0.00000E+00 2.70931E-03
 28.000 7.93477E-02 0.00000E+00 7.80013E-02 0.00000E+00 1.34646E-03
 29.000 8.24806E-02 0.00000E+00 8.17925E-02 0.00000E+00 6.88054E-04
 30.000 8.47205E-02 0.00000E+00 8.43842E-02 0.00000E+00 3.36342E-04
 31.000 8.60475E-02 0.00000E+00 8.58908E-02 0.00000E+00 1.56660E-04
 32.000 8.65007E-02 0.00000E+00 8.64215E-02 0.00000E+00 7.91563E-05
 33.000 8.61160E-02 0.00000E+00 8.60827E-02 0.00000E+00 3.32682E-05
 34.000 8.49869E-02 0.00000E+00 8.49694E-02 0.00000E+00 1.75422E-05
 35.000 8.31786E-02 0.00000E+00 8.31712E-02 0.00000E+00 7.38367E-06
 36.000 8.07755E-02 0.00000E+00 8.07718E-02 0.00000E+00 3.64945E-06
 37.000 7.78388E-02 0.00000E+00 7.78372E-02 0.00000E+00 1.56698E-06
 38.000 7.44293E-02 0.00000E+00 7.44286E-02 0.00000E+00 6.94359E-07
 39.000 7.06107E-02 0.00000E+00 7.06104E-02 0.00000E+00 3.15685E-07
 40.000 6.65709E-02 0.00000E+00 6.65707E-02 0.00000E+00 1.15404E-07
 42.000 5.81675E-02 0.00000E+00 5.81674E-02 0.00000E+00 2.09017E-08
 44.000 4.96900E-02 0.00000E+00 4.96900E-02 0.00000E+00 3.77356E-09
 46.000 4.14826E-02 0.00000E+00 4.14826E-02 0.00000E+00 6.45122E-10
 48.000 3.38090E-02 0.00000E+00 3.38090E-02 0.00000E+00 0.00000E+00
 50.000 2.68578E-02 0.00000E+00 2.68578E-02 0.00000E+00 0.00000E+00
 52.000 2.07466E-02 0.00000E+00 2.07466E-02 0.00000E+00 0.00000E+00
 54.000 1.55347E-02 0.00000E+00 1.55347E-02 0.00000E+00 0.00000E+00
 56.000 1.12270E-02 0.00000E+00 1.12270E-02 0.00000E+00 0.00000E+00
 58.000 7.78534E-03 0.00000E+00 7.78534E-03 0.00000E+00 0.00000E+00
 60.000 5.13613E-03 0.00000E+00 5.13613E-03 0.00000E+00 0.00000E+00
 62.000 3.18288E-03 0.00000E+00 3.18288E-03 0.00000E+00 0.00000E+00
 64.000 1.81548E-03 0.00000E+00 1.81548E-03 0.00000E+00 0.00000E+00
 66.000 9.19072E-04 0.00000E+00 9.19072E-04 0.00000E+00 0.00000E+00
 68.000 3.82877E-04 0.00000E+00 3.82877E-04 0.00000E+00 0.00000E+00
 70.000 1.05739E-04 0.00000E+00 1.05739E-04 0.00000E+00 0.00000E+00
 70.100 1.03530E-04 3.06091E-06 1.00469E-04 0.00000E+00 0.00000E+00
 70.200 9.95231E-05 4.32258E-06 9.52005E-05 0.00000E+00 0.00000E+00
 70.300 9.58847E-05 5.95363E-06 8.99311E-05 0.00000E+00 0.00000E+00
 70.400 9.26603E-05 7.99823E-06 8.46620E-05 0.00000E+00 0.00000E+00
 70.500 8.98748E-05 1.04818E-05 7.93930E-05 0.00000E+00 0.00000E+00
 70.600 8.75257E-05 1.34017E-05 7.41240E-05 0.00000E+00 0.00000E+00
 70.700 8.55741E-05 1.67191E-05 6.88550E-05 0.00000E+00 0.00000E+00
 70.800 8.39400E-05 2.03544E-05 6.35856E-05 0.00000E+00 0.00000E+00
 70.900 8.25009E-05 2.41844E-05 5.83165E-05 0.00000E+00 0.00000E+00
 71.000 8.10958E-05 2.80483E-05 5.30475E-05 0.00000E+00 0.00000E+00
 71.100 7.95349E-05 3.17564E-05 4.77785E-05 0.00000E+00 0.00000E+00
 71.200 7.76143E-05 3.51048E-05 4.25095E-05 0.00000E+00 0.00000E+00
 71.300 7.51346E-05 3.78945E-05 3.72401E-05 0.00000E+00 0.00000E+00
 71.400 7.19211E-05 3.99500E-05 3.19710E-05 0.00000E+00 0.00000E+00
 71.500 6.78411E-05 4.11391E-05 2.67020E-05 0.00000E+00 0.00000E+00
 71.600 6.28189E-05 4.13859E-05 2.14330E-05 0.00000E+00 0.00000E+00
 71.700 5.68433E-05 4.06793E-05 1.61640E-05 0.00000E+00 0.00000E+00
 71.800 4.99681E-05 3.90735E-05 1.08946E-05 0.00000E+00 0.00000E+00
 71.900 4.23069E-05 3.66813E-05 5.62555E-06 0.00000E+00 0.00000E+00
 72.000 3.40173E-05 3.36607E-05 3.56527E-07 0.00000E+00 0.00000E+00
 72.100 3.05368E-05 3.01981E-05 3.38701E-07 0.00000E+00 0.00000E+00
 72.200 2.68104E-05 2.64895E-05 3.20875E-07 0.00000E+00 0.00000E+00
 72.300 2.30256E-05 2.27225E-05 3.03047E-07 0.00000E+00 0.00000E+00
 72.400 1.93482E-05 1.90630E-05 2.85221E-07 0.00000E+00 0.00000E+00
 72.500 1.59105E-05 1.56432E-05 2.67395E-07 0.00000E+00 0.00000E+00
 72.600 1.28069E-05 1.25574E-05 2.49569E-07 0.00000E+00 0.00000E+00
 72.700 1.00935E-05 9.86172E-06 2.31743E-07 0.00000E+00 0.00000E+00
 72.800 7.79113E-06 7.57722E-06 2.13916E-07 0.00000E+00 0.00000E+00
 72.900 5.89265E-06 5.69656E-06 1.96090E-07 0.00000E+00 0.00000E+00
 73.000 4.36881E-06 4.19055E-06 1.78263E-07 0.00000E+00 0.00000E+00
 73.100 3.17688E-06 3.01645E-06 1.60437E-07 0.00000E+00 0.00000E+00
 73.200 2.26727E-06 2.12466E-06 1.42611E-07 0.00000E+00 0.00000E+00
 73.300 1.58911E-06 1.46432E-06 1.24784E-07 0.00000E+00 0.00000E+00
 73.400 1.09449E-06 9.87527E-07 1.06958E-07 0.00000E+00 0.00000E+00
 73.500 7.40758E-07 6.51626E-07 8.91317E-08 0.00000E+00 0.00000E+00
 73.600 4.91995E-07 4.20689E-07 7.13057E-08 0.00000E+00 0.00000E+00
 73.700 3.19190E-07 2.65711E-07 5.34796E-08 0.00000E+00 0.00000E+00
 73.800 1.99822E-07 1.64170E-07 3.56521E-08 0.00000E+00 0.00000E+00
 73.900 1.17049E-07 9.92225E-08 1.78261E-08 0.00000E+00 0.00000E+00
 74.000 5.86551E-08 5.86551E-08 0.00000E+00 0.00000E+00 0.00000E+00
 74.100 3.39110E-08 3.39110E-08 0.00000E+00 0.00000E+00 0.00000E+00
 74.200 1.91723E-08 1.91723E-08 0.00000E+00 0.00000E+00 0.00000E+00
 74.300 1.05986E-08 1.05986E-08 0.00000E+00 0.00000E+00 0.00000E+00
 74.400 5.72875E-09 5.72875E-09 0.00000E+00 0.00000E+00 0.00000E+00
 74.500 3.02728E-09 3.02728E-09 0.00000E+00 0.00000E+00 0.00000E+00
 74.600 1.56383E-09 1.56383E-09 0.00000E+00 0.00000E+00 0.00000E+00
 74.700 7.89646E-10 7.89646E-10 0.00000E+00 0.00000E+00 0.00000E+00
 74.800 3.89698E-10 3.89698E-10 0.00000E+00 0.00000E+00 0.00000E+00
 74.900 1.87970E-10 1.87970E-10 0.00000E+00 0.00000E+00 0.00000E+00
 75.000 8.86061E-11 8.86061E-11 0.00000E+00 0.00000E+00 0.00000E+00
 75.100 4.08152E-11 4.08152E-11 0.00000E+00 0.00000E+00 0.00000E+00
 75.200 1.83712E-11 1.83712E-11 0.00000E+00 0.00000E+00 0.00000E+00
 75.300 8.07893E-12 8.07893E-12 0.00000E+00 0.00000E+00 0.00000E+00
 75.400 3.47138E-12 3.47138E-12 0.00000E+00 0.00000E+00 0.00000E+00
 75.500 1.45723E-12 1.45723E-12 0.00000E+00 0.00000E+00 0.00000E+00
 75.600 5.97598E-13 5.97598E-13 0.00000E+00 0.00000E+00 0.00000E+00
 75.700 2.39396E-13 2.39396E-13 0.00000E+00 0.00000E+00 0.00000E+00
 75.800 9.36685E-14 9.36685E-14 0.00000E+00 0.00000E+00 0.00000E+00
 75.900 3.57993E-14 3.57993E-14 0.00000E+00 0.00000E+00 0.00000E+00
 76.000 1.33629E-14 1.33629E-14 0.00000E+00 0.00000E+00 0.00000E+00
 76.100 4.87126E-15 4.87126E-15 0.00000E+00 0.00000E+00 0.00000E+00
 76.200 1.73408E-15 1.73408E-15 0.00000E+00 0.00000E+00 0.00000E+00
 76.300 6.02717E-16 6.02717E-16 0.00000E+00 0.00000E+00 0.00000E+00
 76.400 2.04557E-16 2.04557E-16 0.00000E+00 0.00000E+00 0.00000E+00
 76.500 6.77799E-17 6.77799E-17 0.00000E+00 0.00000E+00 0.00000E+00
 76.600 2.19250E-17 2.19250E-17 0.00000E+00 0.00000E+00 0.00000E+00
 76.700 6.92302E-18 6.92302E-18 0.00000E+00 0.00000E+00 0.00000E+00
 76.800 2.13350E-18 2.13350E-18 0.00000E+00 0.00000E+00 0.00000E+00
 76.900 6.41759E-19 6.41759E-19 0.00000E+00 0.00000E+00 0.00000E+00
 77.000 1.88390E-19 1.88390E-19 0.00000E+00 0.00000E+00 0.00000E+00
 77.100 5.39655E-20 5.39655E-20 0.00000E+00 0.00000E+00 0.00000E+00
 77.200 1.50837E-20 1.50837E-20 0.00000E+00 0.00000E+00 0.00000E+00
 77.300 4.11296E-21 4.11296E-21 0.00000E+00 0.00000E+00 0.00000E+00
 77.400 1.09423E-21 1.09423E-21 0.00000E+00 0.00000E+00 0.00000E+00
 77.500 2.83981E-22 2.83981E-22 0.00000E+00 0.00000E+00 0.00000E+00
 77.600 7.18898E-23 7.18898E-23 0.00000E+00 0.00000E+00 0.00000E+00
 77.700 1.77504E-23 1.77504E-23 0.00000E+00 0.00000E+00 0.00000E+00
 77.800 4.27398E-24 4.27398E-24 0.00000E+00 0.00000E+00 0.00000E+00
 77.900 1.00371E-24 1.00371E-24 0.00000E+00 0.00000E+00 0.00000E+00
 78.000 2.29854E-25 2.29854E-25 0.00000E+00 0.00000E+00 0.00000E+00
 78.100 5.13270E-26 5.13270E-26 0.00000E+00 0.00000E+00 0.00000E+00
 78.200 1.11753E-26 1.11753E-26 0.00000E+00 0.00000E+00 0.00000E+00
 78.300 2.37200E-27 2.37200E-27 0.00000E+00 0.00000E+00 0.00000E+00
 78.400 4.90903E-28 4.90903E-28 0.00000E+00 0.00000E+00 0.00000E+00
 78.500 9.90437E-29 9.90437E-29 0.00000E+00 0.00000E+00 0.00000E+00
 78.600 1.94800E-29 1.94800E-29 0.00000E+00 0.00000E+00 0.00000E+00
 78.700 3.73475E-30 3.73475E-30 0.00000E+00 0.00000E+00 0.00000E+00
 78.800 6.97866E-31 6.97866E-31 0.00000E+00 0.00000E+00 0.00000E+00
 78.900 1.27120E-31 1.27120E-31 0.00000E+00 0.00000E+00 0.00000E+00
 79.000 2.25693E-32 2.25693E-32 0.00000E+00 0.00000E+00 0.00000E+00
 79.100 3.90544E-33 3.90544E-33 0.00000E+00 0.00000E+00 0.00000E+00
 79.200 6.58652E-34 6.58652E-34 0.00000E+00 0.00000E+00 0.00000E+00
 79.300 1.08244E-34 1.08244E-34 0.00000E+00 0.00000E+00 0.00000E+00
 79.400 1.73389E-35 1.73389E-35 0.00000E+00 0.00000E+00 0.00000E+00
 79.500 2.70668E-36 2.70668E-36 0.00000E+00 0.00000E+00 0.00000E+00
 79.600 4.11761E-37 4.11761E-37 0.00000E+00 0.00000E+00 0.00000E+00
 79.700 6.10428E-38 6.10428E-38 0.00000E+00 0.00000E+00 0.00000E+00
 79.800 8.81725E-39 8.81725E-39 0.00000E+00 0.00000E+00 0.00000E+00
 79.900 1.24126E-39 1.24126E-39 0.00000E+00 0.00000E+00 0.00000E+00
 80.000 1.70275E-40 1.70275E-40 0.00000E+00 0.00000E+00 0.00000E+00
 80.100 2.27613E-41 2.27613E-41 0.00000E+00 0.00000E+00 0.00000E+00
 80.200 2.96515E-42 2.96515E-42 0.00000E+00 0.00000E+00 0.00000E+00
 80.300 3.75548E-43 3.75548E-43 0.00000E+00 0.00000E+00 0.00000E+00
 80.400 4.62428E-44 4.62428E-44 0.00000E+00 0.00000E+00 0.00000E+00
 80.500 5.60519E-45 5.60519E-45 0.00000E+00 0.00000E+00 0.00000E+00
 80.600 0.00000E+00 0.00000E+00 0.00000E+00 0.00000E+00 0.00000E+00
 80.700 0.00000E+00 0.00000E+00 0.00000E+00 0.00000E+00 0.00000E+00
 80.800 0.00000E+00 0.00000E+00 0.00000E+00 0.00000E+00 0.00000E+00
 80.900 0.00000E+00 0.00000E+00 0.00000E+00 0.00000E+00 0.00000E+00
 81.000 0.00000E+00 0.00000E+00 0.00000E+00 0.00000E+00 0.00000E+00
 81.100 0.00000E+00 0.00000E+00 0.00000E+00 0.00000E+00 0.00000E+00
 81.200 0.00000E+00 0.00000E+00 0.00000E+00 0.00000E+00 0.00000E+00
 81.300 0.00000E+00 0.00000E+00 0.00000E+00 0.00000E+00 0.00000E+00
 81.400 0.00000E+00 0.00000E+00 0.00000E+00 0.00000E+00 0.00000E+00
 81.500 0.00000E+00 0.00000E+00 0.00000E+00 0.00000E+00 0.00000E+00
 81.600 0.00000E+00 0.00000E+00 0.00000E+00 0.00000E+00 0.00000E+00
 81.700 0.00000E+00 0.00000E+00 0.00000E+00 0.00000E+00 0.00000E+00
 81.800 0.00000E+00 0.00000E+00 0.00000E+00 0.00000E+00 0.00000E+00
 81.900 0.00000E+00 0.00000E+00 0.00000E+00 0.00000E+00 0.00000E+00
 82.000 0.00000E+00 0.00000E+00 0.00000E+00 0.00000E+00 0.00000E+00
