# n + 209Bi: alpha    DDX spectrum
# E-incident =  63.000
# Angle      =  70.000
# # energies =211
# E-out    Total       Direct    Pre-equil.  Mult. preeq  Compound
  0.700 0.00000E+00 0.00000E+00 0.00000E+00 0.00000E+00 0.00000E+00
  0.800 0.00000E+00 0.00000E+00 0.00000E+00 0.00000E+00 0.00000E+00
  0.900 0.00000E+00 0.00000E+00 0.00000E+00 0.00000E+00 0.00000E+00
  1.000 0.00000E+00 0.00000E+00 0.00000E+00 0.00000E+00 0.00000E+00
  1.100 0.00000E+00 0.00000E+00 0.00000E+00 0.00000E+00 0.00000E+00
  1.200 0.00000E+00 0.00000E+00 0.00000E+00 0.00000E+00 0.00000E+00
  1.300 0.00000E+00 0.00000E+00 0.00000E+00 0.00000E+00 0.00000E+00
  1.400 0.00000E+00 0.00000E+00 0.00000E+00 0.00000E+00 0.00000E+00
  1.500 0.00000E+00 0.00000E+00 0.00000E+00 0.00000E+00 0.00000E+00
  1.600 0.00000E+00 0.00000E+00 0.00000E+00 0.00000E+00 0.00000E+00
  1.700 0.00000E+00 0.00000E+00 0.00000E+00 0.00000E+00 0.00000E+00
  1.800 0.00000E+00 0.00000E+00 0.00000E+00 0.00000E+00 0.00000E+00
  1.900 0.00000E+00 0.00000E+00 0.00000E+00 0.00000E+00 0.00000E+00
  2.000 0.00000E+00 0.00000E+00 0.00000E+00 0.00000E+00 0.00000E+00
  2.200 0.00000E+00 0.00000E+00 0.00000E+00 0.00000E+00 0.00000E+00
  2.400 0.00000E+00 0.00000E+00 0.00000E+00 0.00000E+00 0.00000E+00
  2.600 0.00000E+00 0.00000E+00 0.00000E+00 0.00000E+00 0.00000E+00
  2.800 4.76441E-43 0.00000E+00 4.76441E-43 0.00000E+00 0.00000E+00
  3.000 1.86464E-40 0.00000E+00 1.86464E-40 0.00000E+00 0.00000E+00
  3.200 2.07205E-37 0.00000E+00 2.07205E-37 0.00000E+00 0.00000E+00
  3.400 2.64919E-35 0.00000E+00 2.64919E-35 0.00000E+00 0.00000E+00
  3.600 2.15140E-33 0.00000E+00 2.15140E-33 0.00000E+00 0.00000E+00
  3.800 1.18472E-31 0.00000E+00 1.18472E-31 0.00000E+00 0.00000E+00
  4.000 4.64769E-30 0.00000E+00 4.64769E-30 0.00000E+00 0.00000E+00
  4.500 1.30755E-26 0.00000E+00 1.30755E-26 0.00000E+00 0.00000E+00
  5.000 9.08431E-24 0.00000E+00 9.08431E-24 0.00000E+00 0.00000E+00
  5.500 2.16254E-21 0.00000E+00 2.16254E-21 0.00000E+00 0.00000E+00
  6.000 2.22214E-19 0.00000E+00 2.22214E-19 0.00000E+00 0.00000E+00
  6.500 1.16748E-17 0.00000E+00 1.16748E-17 0.00000E+00 0.00000E+00
  7.000 3.56520E-16 0.00000E+00 3.56520E-16 0.00000E+00 0.00000E+00
  7.500 6.98798E-15 0.00000E+00 6.98798E-15 0.00000E+00 0.00000E+00
  8.000 1.71994E-11 0.00000E+00 9.51386E-14 0.00000E+00 1.71042E-11
  8.500 9.05155E-10 0.00000E+00 9.58491E-13 0.00000E+00 9.04196E-10
  9.000 1.16702E-06 0.00000E+00 7.52007E-12 0.00000E+00 1.16702E-06
  9.500 2.83748E-05 0.00000E+00 4.78762E-11 0.00000E+00 2.83747E-05
 10.000 1.76218E-04 0.00000E+00 2.55540E-10 0.00000E+00 1.76218E-04
 10.500 5.65752E-04 0.00000E+00 1.17372E-09 0.00000E+00 5.65751E-04
 11.000 1.21664E-03 0.00000E+00 4.73647E-09 0.00000E+00 1.21663E-03
 11.500 2.14651E-03 0.00000E+00 1.70793E-08 0.00000E+00 2.14649E-03
 12.000 2.91372E-03 0.00000E+00 5.58167E-08 0.00000E+00 2.91366E-03
 12.500 3.72981E-03 0.00000E+00 1.67326E-07 0.00000E+00 3.72964E-03
 13.000 4.63058E-03 0.00000E+00 4.65015E-07 0.00000E+00 4.63011E-03
 13.500 6.27314E-03 0.00000E+00 1.20926E-06 0.00000E+00 6.27194E-03
 14.000 8.39796E-03 0.00000E+00 2.96693E-06 0.00000E+00 8.39499E-03
 14.500 1.12915E-02 0.00000E+00 6.91824E-06 0.00000E+00 1.12846E-02
 15.000 1.53855E-02 0.00000E+00 1.54291E-05 0.00000E+00 1.53700E-02
 15.500 2.06695E-02 0.00000E+00 3.30844E-05 0.00000E+00 2.06364E-02
 16.000 2.71356E-02 0.00000E+00 6.85000E-05 0.00000E+00 2.70671E-02
 16.500 3.45976E-02 0.00000E+00 1.37367E-04 0.00000E+00 3.44602E-02
 17.000 4.32133E-02 0.00000E+00 2.67294E-04 0.00000E+00 4.29460E-02
 17.500 5.33163E-02 0.00000E+00 5.05198E-04 0.00000E+00 5.28111E-02
 18.000 6.33954E-02 0.00000E+00 9.26957E-04 0.00000E+00 6.24685E-02
 18.500 7.26126E-02 0.00000E+00 1.64774E-03 0.00000E+00 7.09648E-02
 19.000 8.15368E-02 0.00000E+00 2.82647E-03 0.00000E+00 7.87103E-02
 19.500 8.85212E-02 0.00000E+00 4.65236E-03 0.00000E+00 8.38689E-02
 20.000 9.18457E-02 0.00000E+00 7.30227E-03 0.00000E+00 8.45435E-02
 21.000 9.06996E-02 0.00000E+00 1.53246E-02 0.00000E+00 7.53750E-02
 22.000 8.17565E-02 0.00000E+00 2.60943E-02 0.00000E+00 5.56622E-02
 23.000 7.20285E-02 0.00000E+00 3.76917E-02 0.00000E+00 3.43368E-02
 24.000 6.74093E-02 0.00000E+00 4.86438E-02 0.00000E+00 1.87654E-02
 25.000 6.74718E-02 0.00000E+00 5.82629E-02 0.00000E+00 9.20882E-03
 26.000 7.06744E-02 0.00000E+00 6.63430E-02 0.00000E+00 4.33137E-03
 27.000 7.48253E-02 0.00000E+00 7.28925E-02 0.00000E+00 1.93281E-03
 28.000 7.88493E-02 0.00000E+00 7.80044E-02 0.00000E+00 8.44919E-04
 29.000 8.21616E-02 0.00000E+00 8.17952E-02 0.00000E+00 3.66412E-04
 30.000 8.45380E-02 0.00000E+00 8.43865E-02 0.00000E+00 1.51535E-04
 31.000 8.59573E-02 0.00000E+00 8.58925E-02 0.00000E+00 6.47349E-05
 32.000 8.64503E-02 0.00000E+00 8.64241E-02 0.00000E+00 2.61867E-05
 33.000 8.60970E-02 0.00000E+00 8.60860E-02 0.00000E+00 1.09846E-05
 34.000 8.49777E-02 0.00000E+00 8.49734E-02 0.00000E+00 4.37831E-06
 35.000 8.31782E-02 0.00000E+00 8.31764E-02 0.00000E+00 1.82986E-06
 36.000 8.07748E-02 0.00000E+00 8.07741E-02 0.00000E+00 7.31704E-07
 37.000 7.78382E-02 0.00000E+00 7.78379E-02 0.00000E+00 3.02720E-07
 38.000 7.44329E-02 0.00000E+00 7.44328E-02 0.00000E+00 1.18330E-07
 39.000 7.06136E-02 0.00000E+00 7.06135E-02 0.00000E+00 4.94009E-08
 40.000 6.65734E-02 0.00000E+00 6.65734E-02 0.00000E+00 1.69143E-08
 42.000 5.81705E-02 0.00000E+00 5.81705E-02 0.00000E+00 2.75603E-09
 44.000 4.96922E-02 0.00000E+00 4.96922E-02 0.00000E+00 4.11983E-10
 46.000 4.14847E-02 0.00000E+00 4.14847E-02 0.00000E+00 0.00000E+00
 48.000 3.38110E-02 0.00000E+00 3.38110E-02 0.00000E+00 0.00000E+00
 50.000 2.68588E-02 0.00000E+00 2.68588E-02 0.00000E+00 0.00000E+00
 52.000 2.07475E-02 0.00000E+00 2.07475E-02 0.00000E+00 0.00000E+00
 54.000 1.55354E-02 0.00000E+00 1.55354E-02 0.00000E+00 0.00000E+00
 56.000 1.12278E-02 0.00000E+00 1.12278E-02 0.00000E+00 0.00000E+00
 58.000 7.78579E-03 0.00000E+00 7.78579E-03 0.00000E+00 0.00000E+00
 60.000 5.13647E-03 0.00000E+00 5.13647E-03 0.00000E+00 0.00000E+00
 62.000 3.18320E-03 0.00000E+00 3.18320E-03 0.00000E+00 0.00000E+00
 64.000 1.81564E-03 0.00000E+00 1.81564E-03 0.00000E+00 0.00000E+00
 66.000 9.19206E-04 0.00000E+00 9.19206E-04 0.00000E+00 0.00000E+00
 68.000 3.82945E-04 0.00000E+00 3.82945E-04 0.00000E+00 0.00000E+00
 70.000 1.05774E-04 0.00000E+00 1.05774E-04 0.00000E+00 0.00000E+00
 70.100 1.03560E-04 3.05683E-06 1.00503E-04 0.00000E+00 0.00000E+00
 70.200 9.95496E-05 4.31729E-06 9.52323E-05 0.00000E+00 0.00000E+00
 70.300 9.59082E-05 5.94700E-06 8.99612E-05 0.00000E+00 0.00000E+00
 70.400 9.26806E-05 7.99019E-06 8.46904E-05 0.00000E+00 0.00000E+00
 70.500 8.98921E-05 1.04724E-05 7.94197E-05 0.00000E+00 0.00000E+00
 70.600 8.75401E-05 1.33911E-05 7.41490E-05 0.00000E+00 0.00000E+00
 70.700 8.55861E-05 1.67078E-05 6.88783E-05 0.00000E+00 0.00000E+00
 70.800 8.39500E-05 2.03428E-05 6.36071E-05 0.00000E+00 0.00000E+00
 70.900 8.25097E-05 2.41733E-05 5.83364E-05 0.00000E+00 0.00000E+00
 71.000 8.11042E-05 2.80385E-05 5.30657E-05 0.00000E+00 0.00000E+00
 71.100 7.95437E-05 3.17487E-05 4.77950E-05 0.00000E+00 0.00000E+00
 71.200 7.76244E-05 3.51001E-05 4.25243E-05 0.00000E+00 0.00000E+00
 71.300 7.51467E-05 3.78935E-05 3.72531E-05 0.00000E+00 0.00000E+00
 71.400 7.19357E-05 3.99533E-05 3.19824E-05 0.00000E+00 0.00000E+00
 71.500 6.78586E-05 4.11469E-05 2.67117E-05 0.00000E+00 0.00000E+00
 71.600 6.28392E-05 4.13982E-05 2.14410E-05 0.00000E+00 0.00000E+00
 71.700 5.68661E-05 4.06959E-05 1.61702E-05 0.00000E+00 0.00000E+00
 71.800 4.99927E-05 3.90936E-05 1.08991E-05 0.00000E+00 0.00000E+00
 71.900 4.23325E-05 3.67041E-05 5.62838E-06 0.00000E+00 0.00000E+00
 72.000 3.40429E-05 3.36853E-05 3.57657E-07 0.00000E+00 0.00000E+00
 72.100 3.05631E-05 3.02234E-05 3.39775E-07 0.00000E+00 0.00000E+00
 72.200 2.68364E-05 2.65145E-05 3.21892E-07 0.00000E+00 0.00000E+00
 72.300 2.30504E-05 2.27464E-05 3.04008E-07 0.00000E+00 0.00000E+00
 72.400 1.93712E-05 1.90851E-05 2.86126E-07 0.00000E+00 0.00000E+00
 72.500 1.59312E-05 1.56630E-05 2.68243E-07 0.00000E+00 0.00000E+00
 72.600 1.28250E-05 1.25746E-05 2.50360E-07 0.00000E+00 0.00000E+00
 72.700 1.01088E-05 9.87635E-06 2.32478E-07 0.00000E+00 0.00000E+00
 72.800 7.80388E-06 7.58929E-06 2.14594E-07 0.00000E+00 0.00000E+00
 72.900 5.90297E-06 5.70626E-06 1.96711E-07 0.00000E+00 0.00000E+00
 73.000 4.37698E-06 4.19815E-06 1.78829E-07 0.00000E+00 0.00000E+00
 73.100 3.18320E-06 3.02225E-06 1.60946E-07 0.00000E+00 0.00000E+00
 73.200 2.27205E-06 2.12899E-06 1.43063E-07 0.00000E+00 0.00000E+00
 73.300 1.59265E-06 1.46747E-06 1.25180E-07 0.00000E+00 0.00000E+00
 73.400 1.09706E-06 9.89764E-07 1.07297E-07 0.00000E+00 0.00000E+00
 73.500 7.42592E-07 6.53177E-07 8.94143E-08 0.00000E+00 0.00000E+00
 73.600 4.93271E-07 4.21740E-07 7.15317E-08 0.00000E+00 0.00000E+00
 73.700 3.20055E-07 2.66406E-07 5.36491E-08 0.00000E+00 0.00000E+00
 73.800 2.00384E-07 1.64619E-07 3.57652E-08 0.00000E+00 0.00000E+00
 73.900 1.17388E-07 9.95059E-08 1.78826E-08 0.00000E+00 0.00000E+00
 74.000 5.88298E-08 5.88298E-08 0.00000E+00 0.00000E+00 0.00000E+00
 74.100 3.40162E-08 3.40162E-08 0.00000E+00 0.00000E+00 0.00000E+00
 74.200 1.92342E-08 1.92342E-08 0.00000E+00 0.00000E+00 0.00000E+00
 74.300 1.06341E-08 1.06341E-08 0.00000E+00 0.00000E+00 0.00000E+00
 74.400 5.74870E-09 5.74870E-09 0.00000E+00 0.00000E+00 0.00000E+00
 74.500 3.03821E-09 3.03821E-09 0.00000E+00 0.00000E+00 0.00000E+00
 74.600 1.56968E-09 1.56968E-09 0.00000E+00 0.00000E+00 0.00000E+00
 74.700 7.92706E-10 7.92706E-10 0.00000E+00 0.00000E+00 0.00000E+00
 74.800 3.91260E-10 3.91260E-10 0.00000E+00 0.00000E+00 0.00000E+00
 74.900 1.88749E-10 1.88749E-10 0.00000E+00 0.00000E+00 0.00000E+00
 75.000 8.89853E-11 8.89853E-11 0.00000E+00 0.00000E+00 0.00000E+00
 75.100 4.09954E-11 4.09954E-11 0.00000E+00 0.00000E+00 0.00000E+00
 75.200 1.84548E-11 1.84548E-11 0.00000E+00 0.00000E+00 0.00000E+00
 75.300 8.11685E-12 8.11685E-12 0.00000E+00 0.00000E+00 0.00000E+00
 75.400 3.48816E-12 3.48816E-12 0.00000E+00 0.00000E+00 0.00000E+00
 75.500 1.46448E-12 1.46448E-12 0.00000E+00 0.00000E+00 0.00000E+00
 75.600 6.00656E-13 6.00656E-13 0.00000E+00 0.00000E+00 0.00000E+00
 75.700 2.40655E-13 2.40655E-13 0.00000E+00 0.00000E+00 0.00000E+00
 75.800 9.41746E-14 9.41746E-14 0.00000E+00 0.00000E+00 0.00000E+00
 75.900 3.59979E-14 3.59979E-14 0.00000E+00 0.00000E+00 0.00000E+00
 76.000 1.34389E-14 1.34389E-14 0.00000E+00 0.00000E+00 0.00000E+00
 76.100 4.89970E-15 4.89970E-15 0.00000E+00 0.00000E+00 0.00000E+00
 76.200 1.74445E-15 1.74445E-15 0.00000E+00 0.00000E+00 0.00000E+00
 76.300 6.06411E-16 6.06411E-16 0.00000E+00 0.00000E+00 0.00000E+00
 76.400 2.05840E-16 2.05840E-16 0.00000E+00 0.00000E+00 0.00000E+00
 76.500 6.82152E-17 6.82152E-17 0.00000E+00 0.00000E+00 0.00000E+00
 76.600 2.20691E-17 2.20691E-17 0.00000E+00 0.00000E+00 0.00000E+00
 76.700 6.96953E-18 6.96953E-18 0.00000E+00 0.00000E+00 0.00000E+00
 76.800 2.14815E-18 2.14815E-18 0.00000E+00 0.00000E+00 0.00000E+00
 76.900 6.46261E-19 6.46261E-19 0.00000E+00 0.00000E+00 0.00000E+00
 77.000 1.89740E-19 1.89740E-19 0.00000E+00 0.00000E+00 0.00000E+00
 77.100 5.43602E-20 5.43602E-20 0.00000E+00 0.00000E+00 0.00000E+00
 77.200 1.51963E-20 1.51963E-20 0.00000E+00 0.00000E+00 0.00000E+00
 77.300 4.14428E-21 4.14428E-21 0.00000E+00 0.00000E+00 0.00000E+00
 77.400 1.10272E-21 1.10272E-21 0.00000E+00 0.00000E+00 0.00000E+00
 77.500 2.86229E-22 2.86229E-22 0.00000E+00 0.00000E+00 0.00000E+00
 77.600 7.24696E-23 7.24696E-23 0.00000E+00 0.00000E+00 0.00000E+00
 77.700 1.78962E-23 1.78962E-23 0.00000E+00 0.00000E+00 0.00000E+00
 77.800 4.30975E-24 4.30975E-24 0.00000E+00 0.00000E+00 0.00000E+00
 77.900 1.01226E-24 1.01226E-24 0.00000E+00 0.00000E+00 0.00000E+00
 78.000 2.31848E-25 2.31848E-25 0.00000E+00 0.00000E+00 0.00000E+00
 78.100 5.17801E-26 5.17801E-26 0.00000E+00 0.00000E+00 0.00000E+00
 78.200 1.12756E-26 1.12756E-26 0.00000E+00 0.00000E+00 0.00000E+00
 78.300 2.39367E-27 2.39367E-27 0.00000E+00 0.00000E+00 0.00000E+00
 78.400 4.95463E-28 4.95463E-28 0.00000E+00 0.00000E+00 0.00000E+00
 78.500 9.99790E-29 9.99790E-29 0.00000E+00 0.00000E+00 0.00000E+00
 78.600 1.96669E-29 1.96669E-29 0.00000E+00 0.00000E+00 0.00000E+00
 78.700 3.77117E-30 3.77117E-30 0.00000E+00 0.00000E+00 0.00000E+00
 78.800 7.04781E-31 7.04781E-31 0.00000E+00 0.00000E+00 0.00000E+00
 78.900 1.28400E-31 1.28400E-31 0.00000E+00 0.00000E+00 0.00000E+00
 79.000 2.28001E-32 2.28001E-32 0.00000E+00 0.00000E+00 0.00000E+00
 79.100 3.94598E-33 3.94598E-33 0.00000E+00 0.00000E+00 0.00000E+00
 79.200 6.65593E-34 6.65593E-34 0.00000E+00 0.00000E+00 0.00000E+00
 79.300 1.09402E-34 1.09402E-34 0.00000E+00 0.00000E+00 0.00000E+00
 79.400 1.75271E-35 1.75271E-35 0.00000E+00 0.00000E+00 0.00000E+00
 79.500 2.73650E-36 2.73650E-36 0.00000E+00 0.00000E+00 0.00000E+00
 79.600 4.16362E-37 4.16362E-37 0.00000E+00 0.00000E+00 0.00000E+00
 79.700 6.17347E-38 6.17347E-38 0.00000E+00 0.00000E+00 0.00000E+00
 79.800 8.91860E-39 8.91860E-39 0.00000E+00 0.00000E+00 0.00000E+00
 79.900 1.25572E-39 1.25572E-39 0.00000E+00 0.00000E+00 0.00000E+00
 80.000 1.72285E-40 1.72285E-40 0.00000E+00 0.00000E+00 0.00000E+00
 80.100 2.30331E-41 2.30331E-41 0.00000E+00 0.00000E+00 0.00000E+00
 80.200 3.00158E-42 3.00158E-42 0.00000E+00 0.00000E+00 0.00000E+00
 80.300 3.79752E-43 3.79752E-43 0.00000E+00 0.00000E+00 0.00000E+00
 80.400 4.62428E-44 4.62428E-44 0.00000E+00 0.00000E+00 0.00000E+00
 80.500 5.60519E-45 5.60519E-45 0.00000E+00 0.00000E+00 0.00000E+00
 80.600 0.00000E+00 0.00000E+00 0.00000E+00 0.00000E+00 0.00000E+00
 80.700 0.00000E+00 0.00000E+00 0.00000E+00 0.00000E+00 0.00000E+00
 80.800 0.00000E+00 0.00000E+00 0.00000E+00 0.00000E+00 0.00000E+00
 80.900 0.00000E+00 0.00000E+00 0.00000E+00 0.00000E+00 0.00000E+00
 81.000 0.00000E+00 0.00000E+00 0.00000E+00 0.00000E+00 0.00000E+00
 81.100 0.00000E+00 0.00000E+00 0.00000E+00 0.00000E+00 0.00000E+00
 81.200 0.00000E+00 0.00000E+00 0.00000E+00 0.00000E+00 0.00000E+00
 81.300 0.00000E+00 0.00000E+00 0.00000E+00 0.00000E+00 0.00000E+00
 81.400 0.00000E+00 0.00000E+00 0.00000E+00 0.00000E+00 0.00000E+00
 81.500 0.00000E+00 0.00000E+00 0.00000E+00 0.00000E+00 0.00000E+00
 81.600 0.00000E+00 0.00000E+00 0.00000E+00 0.00000E+00 0.00000E+00
 81.700 0.00000E+00 0.00000E+00 0.00000E+00 0.00000E+00 0.00000E+00
 81.800 0.00000E+00 0.00000E+00 0.00000E+00 0.00000E+00 0.00000E+00
 81.900 0.00000E+00 0.00000E+00 0.00000E+00 0.00000E+00 0.00000E+00
 82.000 0.00000E+00 0.00000E+00 0.00000E+00 0.00000E+00 0.00000E+00
