# n + 209Bi: alpha    DDX spectrum
# E-incident =   63.000
# Angle      =  70.000
# # energies =   230
#  E-out    Total       Direct    Pre-equil.  Mult. preeq  Compound
   0.700 0.00000E+00 0.00000E+00 0.00000E+00 0.00000E+00 0.00000E+00
   0.800 0.00000E+00 0.00000E+00 0.00000E+00 0.00000E+00 0.00000E+00
   0.900 0.00000E+00 0.00000E+00 0.00000E+00 0.00000E+00 0.00000E+00
   1.000 0.00000E+00 0.00000E+00 0.00000E+00 0.00000E+00 0.00000E+00
   1.100 0.00000E+00 0.00000E+00 0.00000E+00 0.00000E+00 0.00000E+00
   1.200 0.00000E+00 0.00000E+00 0.00000E+00 0.00000E+00 0.00000E+00
   1.300 0.00000E+00 0.00000E+00 0.00000E+00 0.00000E+00 0.00000E+00
   1.400 0.00000E+00 0.00000E+00 0.00000E+00 0.00000E+00 0.00000E+00
   1.500 0.00000E+00 0.00000E+00 0.00000E+00 0.00000E+00 0.00000E+00
   1.600 0.00000E+00 0.00000E+00 0.00000E+00 0.00000E+00 0.00000E+00
   1.700 0.00000E+00 0.00000E+00 0.00000E+00 0.00000E+00 0.00000E+00
   1.800 0.00000E+00 0.00000E+00 0.00000E+00 0.00000E+00 0.00000E+00
   1.900 0.00000E+00 0.00000E+00 0.00000E+00 0.00000E+00 0.00000E+00
   2.000 0.00000E+00 0.00000E+00 0.00000E+00 0.00000E+00 0.00000E+00
   2.200 0.00000E+00 0.00000E+00 0.00000E+00 0.00000E+00 0.00000E+00
   2.400 0.00000E+00 0.00000E+00 0.00000E+00 0.00000E+00 0.00000E+00
   2.600 0.00000E+00 0.00000E+00 0.00000E+00 0.00000E+00 0.00000E+00
   2.800 0.00000E+00 0.00000E+00 0.00000E+00 0.00000E+00 0.00000E+00
   3.000 1.40130E-45 0.00000E+00 1.40130E-45 0.00000E+00 0.00000E+00
   3.200 2.52234E-43 0.00000E+00 2.52234E-43 0.00000E+00 0.00000E+00
   3.400 1.38158E-40 0.00000E+00 1.38158E-40 0.00000E+00 0.00000E+00
   3.600 1.54594E-38 0.00000E+00 1.54594E-38 0.00000E+00 0.00000E+00
   3.800 8.43885E-37 0.00000E+00 8.43885E-37 0.00000E+00 0.00000E+00
   4.000 3.61504E-35 0.00000E+00 3.61504E-35 0.00000E+00 0.00000E+00
   4.500 1.13129E-31 0.00000E+00 1.13129E-31 0.00000E+00 0.00000E+00
   5.000 8.84645E-29 0.00000E+00 8.84645E-29 0.00000E+00 0.00000E+00
   5.500 2.63110E-26 0.00000E+00 2.63110E-26 0.00000E+00 0.00000E+00
   6.000 3.25362E-24 0.00000E+00 3.25362E-24 0.00000E+00 0.00000E+00
   6.500 2.95645E-22 0.00000E+00 2.95645E-22 0.00000E+00 0.00000E+00
   7.000 1.10506E-13 0.00000E+00 1.60935E-20 0.00000E+00 1.10506E-13
   7.500 3.15672E-11 0.00000E+00 6.26192E-19 0.00000E+00 3.15672E-11
   8.000 1.67155E-07 0.00000E+00 1.61445E-17 0.00000E+00 1.67155E-07
   8.500 1.17470E-06 0.00000E+00 2.75728E-16 0.00000E+00 1.17470E-06
   9.000 2.87061E-06 0.00000E+00 3.72619E-15 0.00000E+00 2.87061E-06
   9.500 3.26010E-06 0.00000E+00 4.19636E-14 0.00000E+00 3.26010E-06
  10.000 7.34569E-05 0.00000E+00 3.96068E-13 0.00000E+00 7.34569E-05
  10.500 2.03175E-04 0.00000E+00 3.17901E-12 0.00000E+00 2.03175E-04
  11.000 2.16112E-04 0.00000E+00 2.20882E-11 0.00000E+00 2.16112E-04
  11.500 2.57690E-04 0.00000E+00 1.35412E-10 0.00000E+00 2.57689E-04
  12.000 3.20729E-04 0.00000E+00 7.46042E-10 0.00000E+00 3.20728E-04
  12.500 4.26956E-04 0.00000E+00 3.75239E-09 0.00000E+00 4.26952E-04
  13.000 7.12431E-04 0.00000E+00 1.96184E-08 0.00000E+00 7.12411E-04
  13.500 1.51379E-03 0.00000E+00 8.91790E-08 0.00000E+00 1.51370E-03
  14.000 2.59748E-03 0.00000E+00 3.49084E-07 0.00000E+00 2.59713E-03
  14.500 3.23540E-03 0.00000E+00 1.21041E-06 0.00000E+00 3.23419E-03
  15.000 3.95241E-03 0.00000E+00 3.80007E-06 0.00000E+00 3.94861E-03
  15.500 5.09420E-03 0.00000E+00 1.10007E-05 0.00000E+00 5.08320E-03
  16.000 6.40490E-03 0.00000E+00 2.97764E-05 0.00000E+00 6.37512E-03
  16.500 9.73643E-03 0.00000E+00 7.60361E-05 0.00000E+00 9.66039E-03
  17.000 1.17079E-02 0.00000E+00 1.83868E-04 0.00000E+00 1.15240E-02
  17.500 1.43917E-02 0.00000E+00 4.15109E-04 0.00000E+00 1.39766E-02
  18.000 1.67188E-02 0.00000E+00 8.87207E-04 0.00000E+00 1.58315E-02
  18.500 1.92688E-02 0.00000E+00 1.78400E-03 0.00000E+00 1.74848E-02
  19.000 2.15583E-02 0.00000E+00 3.36192E-03 0.00000E+00 1.81964E-02
  19.500 2.43212E-02 0.00000E+00 5.90706E-03 0.00000E+00 1.84142E-02
  20.000 2.77758E-02 0.00000E+00 9.39390E-03 0.00000E+00 1.83819E-02
  21.000 3.65999E-02 0.00000E+00 1.91596E-02 0.00000E+00 1.74403E-02
  22.000 4.59382E-02 0.00000E+00 3.12102E-02 0.00000E+00 1.47280E-02
  23.000 5.48929E-02 0.00000E+00 4.34557E-02 0.00000E+00 1.14372E-02
  24.000 6.31753E-02 0.00000E+00 5.46869E-02 0.00000E+00 8.48846E-03
  25.000 6.90835E-02 0.00000E+00 6.31861E-02 0.00000E+00 5.89746E-03
  26.000 7.27141E-02 0.00000E+00 6.90971E-02 0.00000E+00 3.61705E-03
  27.000 7.67137E-02 0.00000E+00 7.56937E-02 0.00000E+00 1.01994E-03
  28.000 8.11437E-02 0.00000E+00 8.08748E-02 0.00000E+00 2.68850E-04
  29.000 8.49026E-02 0.00000E+00 8.47469E-02 0.00000E+00 1.55702E-04
  30.000 8.75041E-02 0.00000E+00 8.74212E-02 0.00000E+00 8.29862E-05
  31.000 8.90496E-02 0.00000E+00 8.90088E-02 0.00000E+00 4.07961E-05
  32.000 8.96285E-02 0.00000E+00 8.96186E-02 0.00000E+00 9.86376E-06
  33.000 8.93519E-02 0.00000E+00 8.93469E-02 0.00000E+00 4.96852E-06
  34.000 8.81473E-02 0.00000E+00 8.81450E-02 0.00000E+00 2.35037E-06
  35.000 8.61738E-02 0.00000E+00 8.61728E-02 0.00000E+00 1.00559E-06
  36.000 8.35997E-02 0.00000E+00 8.35992E-02 0.00000E+00 4.17405E-07
  37.000 8.04927E-02 0.00000E+00 8.04925E-02 0.00000E+00 1.64591E-07
  38.000 7.69177E-02 0.00000E+00 7.69176E-02 0.00000E+00 8.55415E-08
  39.000 7.29269E-02 0.00000E+00 7.29268E-02 0.00000E+00 3.19868E-08
  40.000 6.87212E-02 0.00000E+00 6.87212E-02 0.00000E+00 1.27399E-08
  42.000 6.00050E-02 0.00000E+00 6.00050E-02 0.00000E+00 1.72284E-09
  44.000 5.12372E-02 0.00000E+00 5.12372E-02 0.00000E+00 4.04944E-10
  46.000 4.27645E-02 0.00000E+00 4.27645E-02 0.00000E+00 1.53747E-12
  48.000 3.48511E-02 0.00000E+00 3.48511E-02 0.00000E+00 0.00000E+00
  50.000 2.76854E-02 0.00000E+00 2.76854E-02 0.00000E+00 0.00000E+00
  52.000 2.13875E-02 0.00000E+00 2.13875E-02 0.00000E+00 0.00000E+00
  54.000 1.60159E-02 0.00000E+00 1.60159E-02 0.00000E+00 0.00000E+00
  56.000 1.15757E-02 0.00000E+00 1.15757E-02 0.00000E+00 0.00000E+00
  58.000 8.02699E-03 0.00000E+00 8.02699E-03 0.00000E+00 0.00000E+00
  60.000 5.29502E-03 0.00000E+00 5.29502E-03 0.00000E+00 0.00000E+00
  62.000 3.28058E-03 0.00000E+00 3.28058E-03 0.00000E+00 0.00000E+00
  64.000 1.87026E-03 0.00000E+00 1.87026E-03 0.00000E+00 0.00000E+00
  66.000 9.46105E-04 0.00000E+00 9.46105E-04 0.00000E+00 0.00000E+00
  68.000 3.93681E-04 0.00000E+00 3.93681E-04 0.00000E+00 0.00000E+00
  68.100 3.78831E-04 2.97280E-06 3.75858E-04 0.00000E+00 0.00000E+00
  68.200 3.62684E-04 4.64872E-06 3.58035E-04 0.00000E+00 0.00000E+00
  68.300 3.47271E-04 7.06110E-06 3.40210E-04 0.00000E+00 0.00000E+00
  68.400 3.32805E-04 1.04173E-05 3.22387E-04 0.00000E+00 0.00000E+00
  68.500 3.19492E-04 1.49280E-05 3.04564E-04 0.00000E+00 0.00000E+00
  68.600 3.07520E-04 2.07784E-05 2.86741E-04 0.00000E+00 0.00000E+00
  68.700 2.97011E-04 2.80929E-05 2.68918E-04 0.00000E+00 0.00000E+00
  68.800 2.87989E-04 3.68952E-05 2.51093E-04 0.00000E+00 0.00000E+00
  68.900 2.80339E-04 4.70683E-05 2.33270E-04 0.00000E+00 0.00000E+00
  69.000 2.73779E-04 5.83317E-05 2.15447E-04 0.00000E+00 0.00000E+00
  69.100 2.67856E-04 7.02315E-05 1.97624E-04 0.00000E+00 0.00000E+00
  69.200 2.61962E-04 8.21605E-05 1.79801E-04 0.00000E+00 0.00000E+00
  69.300 2.55384E-04 9.34074E-05 1.61977E-04 0.00000E+00 0.00000E+00
  69.400 2.47383E-04 1.03229E-04 1.44154E-04 0.00000E+00 0.00000E+00
  69.500 2.37280E-04 1.10950E-04 1.26330E-04 0.00000E+00 0.00000E+00
  69.600 2.24557E-04 1.16050E-04 1.08507E-04 0.00000E+00 0.00000E+00
  69.700 2.08940E-04 1.18255E-04 9.06842E-05 0.00000E+00 0.00000E+00
  69.800 1.90444E-04 1.17584E-04 7.28598E-05 0.00000E+00 0.00000E+00
  69.900 1.69397E-04 1.14361E-04 5.50367E-05 0.00000E+00 0.00000E+00
  70.000 1.46398E-04 1.09184E-04 3.72136E-05 0.00000E+00 0.00000E+00
  70.100 1.38204E-04 1.02851E-04 3.53529E-05 0.00000E+00 0.00000E+00
  70.200 1.29743E-04 9.62508E-05 3.34923E-05 0.00000E+00 0.00000E+00
  70.300 1.21885E-04 9.02533E-05 3.16315E-05 0.00000E+00 0.00000E+00
  70.400 1.15366E-04 8.55957E-05 2.97708E-05 0.00000E+00 0.00000E+00
  70.500 1.10703E-04 8.27924E-05 2.79102E-05 0.00000E+00 0.00000E+00
  70.600 1.08131E-04 8.20816E-05 2.60495E-05 0.00000E+00 0.00000E+00
  70.700 1.07596E-04 8.34075E-05 2.41889E-05 0.00000E+00 0.00000E+00
  70.800 1.08772E-04 8.64435E-05 2.23281E-05 0.00000E+00 0.00000E+00
  70.900 1.11114E-04 9.06462E-05 2.04674E-05 0.00000E+00 0.00000E+00
  71.000 1.13942E-04 9.53349E-05 1.86068E-05 0.00000E+00 0.00000E+00
  71.100 1.16526E-04 9.97804E-05 1.67461E-05 0.00000E+00 0.00000E+00
  71.200 1.18179E-04 1.03294E-04 1.48855E-05 0.00000E+00 0.00000E+00
  71.300 1.18329E-04 1.05304E-04 1.30247E-05 0.00000E+00 0.00000E+00
  71.400 1.16577E-04 1.05413E-04 1.11640E-05 0.00000E+00 0.00000E+00
  71.500 1.12730E-04 1.03426E-04 9.30339E-06 0.00000E+00 0.00000E+00
  71.600 1.06800E-04 9.93568E-05 7.44274E-06 0.00000E+00 0.00000E+00
  71.700 9.89845E-05 9.34025E-05 5.58209E-06 0.00000E+00 0.00000E+00
  71.800 8.96272E-05 8.59059E-05 3.72130E-06 0.00000E+00 0.00000E+00
  71.900 7.91651E-05 7.73045E-05 1.86065E-06 0.00000E+00 0.00000E+00
  72.000 6.80720E-05 6.80720E-05 0.00000E+00 0.00000E+00 0.00000E+00
  72.100 5.86704E-05 5.86704E-05 0.00000E+00 0.00000E+00 0.00000E+00
  72.200 4.95084E-05 4.95084E-05 0.00000E+00 0.00000E+00 0.00000E+00
  72.300 4.09143E-05 4.09143E-05 0.00000E+00 0.00000E+00 0.00000E+00
  72.400 3.31246E-05 3.31246E-05 0.00000E+00 0.00000E+00 0.00000E+00
  72.500 2.62800E-05 2.62800E-05 0.00000E+00 0.00000E+00 0.00000E+00
  72.600 2.04367E-05 2.04367E-05 0.00000E+00 0.00000E+00 0.00000E+00
  72.700 1.55812E-05 1.55812E-05 0.00000E+00 0.00000E+00 0.00000E+00
  72.800 1.16482E-05 1.16482E-05 0.00000E+00 0.00000E+00 0.00000E+00
  72.900 8.54006E-06 8.54006E-06 0.00000E+00 0.00000E+00 0.00000E+00
  73.000 6.14075E-06 6.14075E-06 0.00000E+00 0.00000E+00 0.00000E+00
  73.100 4.33057E-06 4.33057E-06 0.00000E+00 0.00000E+00 0.00000E+00
  73.200 2.99511E-06 2.99511E-06 0.00000E+00 0.00000E+00 0.00000E+00
  73.300 2.03129E-06 2.03129E-06 0.00000E+00 0.00000E+00 0.00000E+00
  73.400 1.35078E-06 1.35078E-06 0.00000E+00 0.00000E+00 0.00000E+00
  73.500 8.80578E-07 8.80578E-07 0.00000E+00 0.00000E+00 0.00000E+00
  73.600 5.62641E-07 5.62641E-07 0.00000E+00 0.00000E+00 0.00000E+00
  73.700 3.52272E-07 3.52272E-07 0.00000E+00 0.00000E+00 0.00000E+00
  73.800 2.16068E-07 2.16068E-07 0.00000E+00 0.00000E+00 0.00000E+00
  73.900 1.29806E-07 1.29806E-07 0.00000E+00 0.00000E+00 0.00000E+00
  74.000 7.63605E-08 7.63605E-08 0.00000E+00 0.00000E+00 0.00000E+00
  74.100 4.39756E-08 4.39756E-08 0.00000E+00 0.00000E+00 0.00000E+00
  74.200 2.47870E-08 2.47870E-08 0.00000E+00 0.00000E+00 0.00000E+00
  74.300 1.36707E-08 1.36707E-08 0.00000E+00 0.00000E+00 0.00000E+00
  74.400 7.37676E-09 7.37676E-09 0.00000E+00 0.00000E+00 0.00000E+00
  74.500 3.89356E-09 3.89356E-09 0.00000E+00 0.00000E+00 0.00000E+00
  74.600 2.00984E-09 2.00984E-09 0.00000E+00 0.00000E+00 0.00000E+00
  74.700 1.01448E-09 1.01448E-09 0.00000E+00 0.00000E+00 0.00000E+00
  74.800 5.00613E-10 5.00613E-10 0.00000E+00 0.00000E+00 0.00000E+00
  74.900 2.41510E-10 2.41510E-10 0.00000E+00 0.00000E+00 0.00000E+00
  75.000 1.13885E-10 1.13885E-10 0.00000E+00 0.00000E+00 0.00000E+00
  75.100 5.24868E-11 5.24868E-11 0.00000E+00 0.00000E+00 0.00000E+00
  75.200 2.36400E-11 2.36400E-11 0.00000E+00 0.00000E+00 0.00000E+00
  75.300 1.04038E-11 1.04038E-11 0.00000E+00 0.00000E+00 0.00000E+00
  75.400 4.47404E-12 4.47404E-12 0.00000E+00 0.00000E+00 0.00000E+00
  75.500 1.87980E-12 1.87980E-12 0.00000E+00 0.00000E+00 0.00000E+00
  75.600 7.71607E-13 7.71607E-13 0.00000E+00 0.00000E+00 0.00000E+00
  75.700 3.09401E-13 3.09401E-13 0.00000E+00 0.00000E+00 0.00000E+00
  75.800 1.21178E-13 1.21178E-13 0.00000E+00 0.00000E+00 0.00000E+00
  75.900 4.63589E-14 4.63589E-14 0.00000E+00 0.00000E+00 0.00000E+00
  76.000 1.73216E-14 1.73216E-14 0.00000E+00 0.00000E+00 0.00000E+00
  76.100 6.32060E-15 6.32060E-15 0.00000E+00 0.00000E+00 0.00000E+00
  76.200 2.25220E-15 2.25220E-15 0.00000E+00 0.00000E+00 0.00000E+00
  76.300 7.83551E-16 7.83551E-16 0.00000E+00 0.00000E+00 0.00000E+00
  76.400 2.66180E-16 2.66180E-16 0.00000E+00 0.00000E+00 0.00000E+00
  76.500 8.82794E-17 8.82794E-17 0.00000E+00 0.00000E+00 0.00000E+00
  76.600 2.85814E-17 2.85814E-17 0.00000E+00 0.00000E+00 0.00000E+00
  76.700 9.03262E-18 9.03262E-18 0.00000E+00 0.00000E+00 0.00000E+00
  76.800 2.78593E-18 2.78593E-18 0.00000E+00 0.00000E+00 0.00000E+00
  76.900 8.38682E-19 8.38682E-19 0.00000E+00 0.00000E+00 0.00000E+00
  77.000 2.46387E-19 2.46387E-19 0.00000E+00 0.00000E+00 0.00000E+00
  77.100 7.06312E-20 7.06312E-20 0.00000E+00 0.00000E+00 0.00000E+00
  77.200 1.97558E-20 1.97558E-20 0.00000E+00 0.00000E+00 0.00000E+00
  77.300 5.39057E-21 5.39057E-21 0.00000E+00 0.00000E+00 0.00000E+00
  77.400 1.43505E-21 1.43505E-21 0.00000E+00 0.00000E+00 0.00000E+00
  77.500 3.72664E-22 3.72664E-22 0.00000E+00 0.00000E+00 0.00000E+00
  77.600 9.43949E-23 9.43949E-23 0.00000E+00 0.00000E+00 0.00000E+00
  77.700 2.33202E-23 2.33202E-23 0.00000E+00 0.00000E+00 0.00000E+00
  77.800 5.61808E-24 5.61808E-24 0.00000E+00 0.00000E+00 0.00000E+00
  77.900 1.32002E-24 1.32002E-24 0.00000E+00 0.00000E+00 0.00000E+00
  78.000 3.02438E-25 3.02438E-25 0.00000E+00 0.00000E+00 0.00000E+00
  78.100 6.75659E-26 6.75659E-26 0.00000E+00 0.00000E+00 0.00000E+00
  78.200 1.47174E-26 1.47174E-26 0.00000E+00 0.00000E+00 0.00000E+00
  78.300 3.12514E-27 3.12514E-27 0.00000E+00 0.00000E+00 0.00000E+00
  78.400 6.47024E-28 6.47024E-28 0.00000E+00 0.00000E+00 0.00000E+00
  78.500 1.30593E-28 1.30593E-28 0.00000E+00 0.00000E+00 0.00000E+00
  78.600 2.56943E-29 2.56943E-29 0.00000E+00 0.00000E+00 0.00000E+00
  78.700 4.92787E-30 4.92787E-30 0.00000E+00 0.00000E+00 0.00000E+00
  78.800 9.21120E-31 9.21120E-31 0.00000E+00 0.00000E+00 0.00000E+00
  78.900 1.67841E-31 1.67841E-31 0.00000E+00 0.00000E+00 0.00000E+00
  79.000 2.98083E-32 2.98083E-32 0.00000E+00 0.00000E+00 0.00000E+00
  79.100 5.15960E-33 5.15960E-33 0.00000E+00 0.00000E+00 0.00000E+00
  79.200 8.70417E-34 8.70417E-34 0.00000E+00 0.00000E+00 0.00000E+00
  79.300 1.43086E-34 1.43086E-34 0.00000E+00 0.00000E+00 0.00000E+00
  79.400 2.29261E-35 2.29261E-35 0.00000E+00 0.00000E+00 0.00000E+00
  79.500 3.57983E-36 3.57983E-36 0.00000E+00 0.00000E+00 0.00000E+00
  79.600 5.44727E-37 5.44727E-37 0.00000E+00 0.00000E+00 0.00000E+00
  79.700 8.07748E-38 8.07748E-38 0.00000E+00 0.00000E+00 0.00000E+00
  79.800 1.16703E-38 1.16703E-38 0.00000E+00 0.00000E+00 0.00000E+00
  79.900 1.64328E-39 1.64328E-39 0.00000E+00 0.00000E+00 0.00000E+00
  80.000 2.25477E-40 2.25477E-40 0.00000E+00 0.00000E+00 0.00000E+00
  80.100 3.01447E-41 3.01447E-41 0.00000E+00 0.00000E+00 0.00000E+00
  80.200 3.92784E-42 3.92784E-42 0.00000E+00 0.00000E+00 0.00000E+00
  80.300 4.98862E-43 4.98862E-43 0.00000E+00 0.00000E+00 0.00000E+00
  80.400 6.16571E-44 6.16571E-44 0.00000E+00 0.00000E+00 0.00000E+00
  80.500 7.00649E-45 7.00649E-45 0.00000E+00 0.00000E+00 0.00000E+00
  80.600 1.40130E-45 1.40130E-45 0.00000E+00 0.00000E+00 0.00000E+00
  80.700 0.00000E+00 0.00000E+00 0.00000E+00 0.00000E+00 0.00000E+00
  80.800 0.00000E+00 0.00000E+00 0.00000E+00 0.00000E+00 0.00000E+00
  80.900 0.00000E+00 0.00000E+00 0.00000E+00 0.00000E+00 0.00000E+00
  81.000 0.00000E+00 0.00000E+00 0.00000E+00 0.00000E+00 0.00000E+00
  81.100 0.00000E+00 0.00000E+00 0.00000E+00 0.00000E+00 0.00000E+00
  81.200 0.00000E+00 0.00000E+00 0.00000E+00 0.00000E+00 0.00000E+00
  81.300 0.00000E+00 0.00000E+00 0.00000E+00 0.00000E+00 0.00000E+00
  81.400 0.00000E+00 0.00000E+00 0.00000E+00 0.00000E+00 0.00000E+00
  81.500 0.00000E+00 0.00000E+00 0.00000E+00 0.00000E+00 0.00000E+00
  81.600 0.00000E+00 0.00000E+00 0.00000E+00 0.00000E+00 0.00000E+00
  81.700 0.00000E+00 0.00000E+00 0.00000E+00 0.00000E+00 0.00000E+00
  81.800 0.00000E+00 0.00000E+00 0.00000E+00 0.00000E+00 0.00000E+00
  81.900 0.00000E+00 0.00000E+00 0.00000E+00 0.00000E+00 0.00000E+00
  82.000 0.00000E+00 0.00000E+00 0.00000E+00 0.00000E+00 0.00000E+00
