# n + 209Bi: deuteron DDX spectrum
# E-incident =  63.000
# Angle      =  70.000
# # energies =227
# E-out    Total       Direct    Pre-equil.  Mult. preeq  Compound
  0.400 0.00000E+00 0.00000E+00 0.00000E+00 0.00000E+00 0.00000E+00
  0.500 0.00000E+00 0.00000E+00 0.00000E+00 0.00000E+00 0.00000E+00
  0.600 0.00000E+00 0.00000E+00 0.00000E+00 0.00000E+00 0.00000E+00
  0.700 1.82169E-44 0.00000E+00 1.82169E-44 0.00000E+00 0.00000E+00
  0.800 1.18015E-40 0.00000E+00 1.18015E-40 0.00000E+00 0.00000E+00
  0.900 1.64678E-37 0.00000E+00 1.64678E-37 0.00000E+00 0.00000E+00
  1.000 4.01489E-34 0.00000E+00 4.01489E-34 0.00000E+00 0.00000E+00
  1.100 7.71437E-32 0.00000E+00 7.71437E-32 0.00000E+00 0.00000E+00
  1.200 7.50126E-30 0.00000E+00 7.50126E-30 0.00000E+00 0.00000E+00
  1.300 4.21990E-28 0.00000E+00 4.21990E-28 0.00000E+00 0.00000E+00
  1.400 1.51666E-26 0.00000E+00 1.51666E-26 0.00000E+00 0.00000E+00
  1.500 3.75959E-25 0.00000E+00 3.75959E-25 0.00000E+00 0.00000E+00
  1.600 6.81593E-24 0.00000E+00 6.81593E-24 0.00000E+00 0.00000E+00
  1.700 9.46901E-23 0.00000E+00 9.46901E-23 0.00000E+00 0.00000E+00
  1.800 1.04651E-21 0.00000E+00 1.04651E-21 0.00000E+00 0.00000E+00
  1.900 9.48606E-21 0.00000E+00 9.48606E-21 0.00000E+00 0.00000E+00
  2.000 7.22956E-20 0.00000E+00 7.22956E-20 0.00000E+00 0.00000E+00
  2.200 2.70660E-18 0.00000E+00 2.70660E-18 0.00000E+00 0.00000E+00
  2.400 6.25493E-17 0.00000E+00 6.25493E-17 0.00000E+00 0.00000E+00
  2.600 9.80796E-16 0.00000E+00 9.80796E-16 0.00000E+00 0.00000E+00
  2.800 1.12022E-14 0.00000E+00 1.12022E-14 0.00000E+00 0.00000E+00
  3.000 2.10910E-11 0.00000E+00 9.83462E-14 0.00000E+00 2.09926E-11
  3.200 5.78280E-10 0.00000E+00 6.92349E-13 0.00000E+00 5.77588E-10
  3.400 3.46141E-09 0.00000E+00 4.04079E-12 0.00000E+00 3.45737E-09
  3.600 9.99412E-09 0.00000E+00 2.00830E-11 0.00000E+00 9.97404E-09
  3.800 3.12139E-08 0.00000E+00 8.68963E-11 0.00000E+00 3.11270E-08
  4.000 9.49078E-08 0.00000E+00 3.33265E-10 0.00000E+00 9.45745E-08
  4.500 7.96204E-07 0.00000E+00 6.21451E-09 0.00000E+00 7.89990E-07
  5.000 4.49321E-06 0.00000E+00 7.10710E-08 0.00000E+00 4.42214E-06
  5.500 1.49379E-05 0.00000E+00 5.61541E-07 0.00000E+00 1.43764E-05
  6.000 6.24914E-05 0.00000E+00 3.32857E-06 0.00000E+00 5.91628E-05
  6.500 1.76356E-04 0.00000E+00 1.56911E-05 0.00000E+00 1.60665E-04
  7.000 3.87626E-04 0.00000E+00 6.13212E-05 0.00000E+00 3.26305E-04
  7.500 9.49327E-04 0.00000E+00 2.04499E-04 0.00000E+00 7.44828E-04
  8.000 1.84812E-03 0.00000E+00 5.92704E-04 0.00000E+00 1.25541E-03
  8.500 3.32313E-03 0.00000E+00 1.50549E-03 0.00000E+00 1.81763E-03
  9.000 5.95679E-03 0.00000E+00 3.35159E-03 0.00000E+00 2.60520E-03
  9.500 9.57090E-03 0.00000E+00 6.52775E-03 0.00000E+00 3.04315E-03
 10.000 1.44981E-02 0.00000E+00 1.11947E-02 0.00000E+00 3.30338E-03
 10.500 2.04486E-02 0.00000E+00 1.72275E-02 0.00000E+00 3.22114E-03
 11.000 2.73036E-02 0.00000E+00 2.43691E-02 0.00000E+00 2.93447E-03
 11.500 3.48432E-02 0.00000E+00 3.23482E-02 0.00000E+00 2.49500E-03
 12.000 4.27746E-02 0.00000E+00 4.08806E-02 0.00000E+00 1.89406E-03
 12.500 5.11949E-02 0.00000E+00 4.96812E-02 0.00000E+00 1.51372E-03
 13.000 5.95537E-02 0.00000E+00 5.84733E-02 0.00000E+00 1.08043E-03
 13.500 6.77450E-02 0.00000E+00 6.69948E-02 0.00000E+00 7.50210E-04
 14.000 7.55913E-02 0.00000E+00 7.50500E-02 0.00000E+00 5.41297E-04
 14.500 8.29102E-02 0.00000E+00 8.25520E-02 0.00000E+00 3.58194E-04
 15.000 8.97399E-02 0.00000E+00 8.94984E-02 0.00000E+00 2.41445E-04
 15.500 9.60732E-02 0.00000E+00 9.59144E-02 0.00000E+00 1.58741E-04
 16.000 1.01929E-01 0.00000E+00 1.01824E-01 0.00000E+00 1.04141E-04
 16.500 1.07326E-01 0.00000E+00 1.07259E-01 0.00000E+00 6.69047E-05
 17.000 1.12298E-01 0.00000E+00 1.12254E-01 0.00000E+00 4.34204E-05
 17.500 1.16869E-01 0.00000E+00 1.16841E-01 0.00000E+00 2.80961E-05
 18.000 1.21050E-01 0.00000E+00 1.21033E-01 0.00000E+00 1.69990E-05
 18.500 1.24844E-01 0.00000E+00 1.24833E-01 0.00000E+00 1.14519E-05
 19.000 1.28244E-01 0.00000E+00 1.28237E-01 0.00000E+00 6.98061E-06
 19.500 1.31253E-01 0.00000E+00 1.31249E-01 0.00000E+00 4.24941E-06
 20.000 1.33888E-01 0.00000E+00 1.33885E-01 0.00000E+00 2.66299E-06
 21.000 1.38119E-01 0.00000E+00 1.38118E-01 0.00000E+00 1.06038E-06
 22.000 1.41111E-01 0.00000E+00 1.41110E-01 0.00000E+00 4.03595E-07
 23.000 1.42992E-01 0.00000E+00 1.42992E-01 0.00000E+00 1.54191E-07
 24.000 1.43819E-01 0.00000E+00 1.43819E-01 0.00000E+00 5.96129E-08
 25.000 1.43624E-01 0.00000E+00 1.43624E-01 0.00000E+00 2.19757E-08
 26.000 1.42502E-01 0.00000E+00 1.42502E-01 0.00000E+00 7.68733E-09
 27.000 1.40730E-01 0.00000E+00 1.40730E-01 0.00000E+00 2.66714E-09
 28.000 1.38434E-01 0.00000E+00 1.38434E-01 0.00000E+00 8.92886E-10
 29.000 1.35682E-01 0.00000E+00 1.35682E-01 0.00000E+00 1.51162E-10
 30.000 1.32527E-01 0.00000E+00 1.32527E-01 0.00000E+00 4.26690E-12
 31.000 1.29014E-01 0.00000E+00 1.29014E-01 0.00000E+00 0.00000E+00
 32.000 1.25189E-01 0.00000E+00 1.25189E-01 0.00000E+00 0.00000E+00
 33.000 1.21106E-01 0.00000E+00 1.21106E-01 0.00000E+00 0.00000E+00
 34.000 1.16823E-01 0.00000E+00 1.16823E-01 0.00000E+00 0.00000E+00
 35.000 1.12391E-01 0.00000E+00 1.12391E-01 0.00000E+00 0.00000E+00
 36.000 1.07852E-01 0.00000E+00 1.07852E-01 0.00000E+00 0.00000E+00
 37.000 1.03237E-01 0.00000E+00 1.03237E-01 0.00000E+00 0.00000E+00
 38.000 9.85739E-02 0.00000E+00 9.85739E-02 0.00000E+00 0.00000E+00
 39.000 9.38913E-02 0.00000E+00 9.38913E-02 0.00000E+00 0.00000E+00
 40.000 8.92213E-02 0.00000E+00 8.92213E-02 0.00000E+00 0.00000E+00
 42.000 8.00451E-02 0.00000E+00 8.00451E-02 0.00000E+00 0.00000E+00
 44.000 7.12605E-02 0.00000E+00 7.12605E-02 0.00000E+00 0.00000E+00
 46.000 6.30232E-02 0.00000E+00 6.30232E-02 0.00000E+00 0.00000E+00
 48.000 5.54438E-02 0.00000E+00 5.54438E-02 0.00000E+00 0.00000E+00
 50.000 4.85984E-02 0.00000E+00 4.85984E-02 0.00000E+00 0.00000E+00
 52.000 4.25169E-02 0.00000E+00 4.25169E-02 0.00000E+00 0.00000E+00
 54.000 3.71868E-02 0.00000E+00 3.71868E-02 0.00000E+00 0.00000E+00
 56.000 3.25652E-02 0.00000E+00 3.25652E-02 0.00000E+00 0.00000E+00
 56.100 3.12895E-02 2.14527E-04 3.10750E-02 0.00000E+00 0.00000E+00
 56.200 2.99786E-02 3.93845E-04 2.95848E-02 0.00000E+00 0.00000E+00
 56.300 2.87850E-02 6.90469E-04 2.80946E-02 0.00000E+00 0.00000E+00
 56.400 2.77612E-02 1.15695E-03 2.66043E-02 0.00000E+00 0.00000E+00
 56.500 2.69686E-02 1.85451E-03 2.51141E-02 0.00000E+00 0.00000E+00
 56.600 2.64707E-02 2.84684E-03 2.36239E-02 0.00000E+00 0.00000E+00
 56.700 2.63241E-02 4.19048E-03 2.21336E-02 0.00000E+00 0.00000E+00
 56.800 2.65665E-02 5.92305E-03 2.06434E-02 0.00000E+00 0.00000E+00
 56.900 2.72061E-02 8.05293E-03 1.91532E-02 0.00000E+00 0.00000E+00
 57.000 2.82153E-02 1.05523E-02 1.76630E-02 0.00000E+00 0.00000E+00
 57.100 2.95317E-02 1.33589E-02 1.61728E-02 0.00000E+00 0.00000E+00
 57.200 3.10682E-02 1.63857E-02 1.46825E-02 0.00000E+00 0.00000E+00
 57.300 3.27315E-02 1.95392E-02 1.31923E-02 0.00000E+00 0.00000E+00
 57.400 3.44442E-02 2.27422E-02 1.17021E-02 0.00000E+00 0.00000E+00
 57.500 3.61643E-02 2.59524E-02 1.02119E-02 0.00000E+00 0.00000E+00
 57.600 3.78933E-02 2.91716E-02 8.72166E-03 0.00000E+00 0.00000E+00
 57.700 3.96666E-02 3.24352E-02 7.23140E-03 0.00000E+00 0.00000E+00
 57.800 4.15233E-02 3.57821E-02 5.74120E-03 0.00000E+00 0.00000E+00
 57.900 4.34612E-02 3.92102E-02 4.25094E-03 0.00000E+00 0.00000E+00
 58.000 4.53883E-02 4.26276E-02 2.76074E-03 0.00000E+00 0.00000E+00
 58.100 4.84442E-02 4.58215E-02 2.62271E-03 0.00000E+00 0.00000E+00
 58.200 5.09467E-02 4.84620E-02 2.48467E-03 0.00000E+00 0.00000E+00
 58.300 5.24950E-02 5.01483E-02 2.34663E-03 0.00000E+00 0.00000E+00
 58.400 5.27035E-02 5.04949E-02 2.20859E-03 0.00000E+00 0.00000E+00
 58.500 5.13020E-02 4.92315E-02 2.07056E-03 0.00000E+00 0.00000E+00
 58.600 4.82203E-02 4.62877E-02 1.93252E-03 0.00000E+00 0.00000E+00
 58.700 4.36257E-02 4.18312E-02 1.79448E-03 0.00000E+00 0.00000E+00
 58.800 3.79025E-02 3.62461E-02 1.65645E-03 0.00000E+00 0.00000E+00
 58.900 3.15739E-02 3.00555E-02 1.51841E-03 0.00000E+00 0.00000E+00
 59.000 2.51977E-02 2.38173E-02 1.38037E-03 0.00000E+00 0.00000E+00
 59.100 1.92616E-02 1.80193E-02 1.24234E-03 0.00000E+00 0.00000E+00
 59.200 1.41120E-02 1.30077E-02 1.10430E-03 0.00000E+00 0.00000E+00
 59.300 9.92627E-03 8.96001E-03 9.66261E-04 0.00000E+00 0.00000E+00
 59.400 6.72615E-03 5.89793E-03 8.28221E-04 0.00000E+00 0.00000E+00
 59.500 4.42236E-03 3.73218E-03 6.90186E-04 0.00000E+00 0.00000E+00
 59.600 2.86724E-03 2.31509E-03 5.52151E-04 0.00000E+00 0.00000E+00
 59.700 1.90398E-03 1.48987E-03 4.14110E-04 0.00000E+00 0.00000E+00
 59.800 1.40146E-03 1.12538E-03 2.76075E-04 0.00000E+00 0.00000E+00
 59.900 1.27211E-03 1.13408E-03 1.38035E-04 0.00000E+00 0.00000E+00
 60.000 1.47542E-03 1.47542E-03 0.00000E+00 0.00000E+00 0.00000E+00
 60.100 2.14751E-03 2.14751E-03 0.00000E+00 0.00000E+00 0.00000E+00
 60.200 3.17084E-03 3.17084E-03 0.00000E+00 0.00000E+00 0.00000E+00
 60.300 4.56660E-03 4.56660E-03 0.00000E+00 0.00000E+00 0.00000E+00
 60.400 6.33362E-03 6.33362E-03 0.00000E+00 0.00000E+00 0.00000E+00
 60.500 8.42672E-03 8.42672E-03 0.00000E+00 0.00000E+00 0.00000E+00
 60.600 1.07429E-02 1.07429E-02 0.00000E+00 0.00000E+00 0.00000E+00
 60.700 1.31188E-02 1.31188E-02 0.00000E+00 0.00000E+00 0.00000E+00
 60.800 1.53439E-02 1.53439E-02 0.00000E+00 0.00000E+00 0.00000E+00
 60.900 1.71883E-02 1.71883E-02 0.00000E+00 0.00000E+00 0.00000E+00
 61.000 1.84408E-02 1.84408E-02 0.00000E+00 0.00000E+00 0.00000E+00
 61.100 1.89487E-02 1.89487E-02 0.00000E+00 0.00000E+00 0.00000E+00
 61.200 1.86479E-02 1.86479E-02 0.00000E+00 0.00000E+00 0.00000E+00
 61.300 1.75765E-02 1.75765E-02 0.00000E+00 0.00000E+00 0.00000E+00
 61.400 1.58665E-02 1.58665E-02 0.00000E+00 0.00000E+00 0.00000E+00
 61.500 1.37178E-02 1.37178E-02 0.00000E+00 0.00000E+00 0.00000E+00
 61.600 1.13590E-02 1.13590E-02 0.00000E+00 0.00000E+00 0.00000E+00
 61.700 9.00829E-03 9.00829E-03 0.00000E+00 0.00000E+00 0.00000E+00
 61.800 6.84225E-03 6.84225E-03 0.00000E+00 0.00000E+00 0.00000E+00
 61.900 4.97739E-03 4.97739E-03 0.00000E+00 0.00000E+00 0.00000E+00
 62.000 3.46785E-03 3.46785E-03 0.00000E+00 0.00000E+00 0.00000E+00
 62.100 2.31403E-03 2.31403E-03 0.00000E+00 0.00000E+00 0.00000E+00
 62.200 1.47885E-03 1.47885E-03 0.00000E+00 0.00000E+00 0.00000E+00
 62.300 9.05179E-04 9.05179E-04 0.00000E+00 0.00000E+00 0.00000E+00
 62.400 5.30626E-04 5.30626E-04 0.00000E+00 0.00000E+00 0.00000E+00
 62.500 2.97922E-04 2.97922E-04 0.00000E+00 0.00000E+00 0.00000E+00
 62.600 1.60202E-04 1.60202E-04 0.00000E+00 0.00000E+00 0.00000E+00
 62.700 8.25033E-05 8.25033E-05 0.00000E+00 0.00000E+00 0.00000E+00
 62.800 4.06947E-05 4.06947E-05 0.00000E+00 0.00000E+00 0.00000E+00
 62.900 1.92240E-05 1.92240E-05 0.00000E+00 0.00000E+00 0.00000E+00
 63.000 8.69786E-06 8.69786E-06 0.00000E+00 0.00000E+00 0.00000E+00
 63.100 3.76905E-06 3.76905E-06 0.00000E+00 0.00000E+00 0.00000E+00
 63.200 1.56419E-06 1.56419E-06 0.00000E+00 0.00000E+00 0.00000E+00
 63.300 6.21742E-07 6.21742E-07 0.00000E+00 0.00000E+00 0.00000E+00
 63.400 2.36683E-07 2.36683E-07 0.00000E+00 0.00000E+00 0.00000E+00
 63.500 8.62960E-08 8.62960E-08 0.00000E+00 0.00000E+00 0.00000E+00
 63.600 3.01346E-08 3.01346E-08 0.00000E+00 0.00000E+00 0.00000E+00
 63.700 1.00780E-08 1.00780E-08 0.00000E+00 0.00000E+00 0.00000E+00
 63.800 3.22813E-09 3.22813E-09 0.00000E+00 0.00000E+00 0.00000E+00
 63.900 9.90282E-10 9.90282E-10 0.00000E+00 0.00000E+00 0.00000E+00
 64.000 2.90963E-10 2.90963E-10 0.00000E+00 0.00000E+00 0.00000E+00
 64.100 8.18781E-11 8.18781E-11 0.00000E+00 0.00000E+00 0.00000E+00
 64.200 2.20673E-11 2.20673E-11 0.00000E+00 0.00000E+00 0.00000E+00
 64.300 5.69556E-12 5.69556E-12 0.00000E+00 0.00000E+00 0.00000E+00
 64.400 1.40805E-12 1.40805E-12 0.00000E+00 0.00000E+00 0.00000E+00
 64.500 3.33390E-13 3.33390E-13 0.00000E+00 0.00000E+00 0.00000E+00
 64.600 7.56028E-14 7.56028E-14 0.00000E+00 0.00000E+00 0.00000E+00
 64.700 1.64200E-14 1.64200E-14 0.00000E+00 0.00000E+00 0.00000E+00
 64.800 3.41515E-15 3.41515E-15 0.00000E+00 0.00000E+00 0.00000E+00
 64.900 6.80373E-16 6.80373E-16 0.00000E+00 0.00000E+00 0.00000E+00
 65.000 1.29818E-16 1.29818E-16 0.00000E+00 0.00000E+00 0.00000E+00
 65.100 2.37233E-17 2.37233E-17 0.00000E+00 0.00000E+00 0.00000E+00
 65.200 4.15210E-18 4.15210E-18 0.00000E+00 0.00000E+00 0.00000E+00
 65.300 6.95906E-19 6.95906E-19 0.00000E+00 0.00000E+00 0.00000E+00
 65.400 1.11723E-19 1.11723E-19 0.00000E+00 0.00000E+00 0.00000E+00
 65.500 1.71786E-20 1.71786E-20 0.00000E+00 0.00000E+00 0.00000E+00
 65.600 2.52978E-21 2.52978E-21 0.00000E+00 0.00000E+00 0.00000E+00
 65.700 3.56803E-22 3.56803E-22 0.00000E+00 0.00000E+00 0.00000E+00
 65.800 4.81903E-23 4.81903E-23 0.00000E+00 0.00000E+00 0.00000E+00
 65.900 6.23459E-24 6.23459E-24 0.00000E+00 0.00000E+00 0.00000E+00
 66.000 7.72515E-25 7.72515E-25 0.00000E+00 0.00000E+00 0.00000E+00
 66.100 9.16763E-26 9.16763E-26 0.00000E+00 0.00000E+00 0.00000E+00
 66.200 1.04198E-26 1.04198E-26 0.00000E+00 0.00000E+00 0.00000E+00
 66.300 1.13406E-27 1.13406E-27 0.00000E+00 0.00000E+00 0.00000E+00
 66.400 1.18233E-28 1.18233E-28 0.00000E+00 0.00000E+00 0.00000E+00
 66.500 1.18058E-29 1.18058E-29 0.00000E+00 0.00000E+00 0.00000E+00
 66.600 1.12902E-30 1.12902E-30 0.00000E+00 0.00000E+00 0.00000E+00
 66.700 1.03409E-31 1.03409E-31 0.00000E+00 0.00000E+00 0.00000E+00
 66.800 9.06950E-33 9.06950E-33 0.00000E+00 0.00000E+00 0.00000E+00
 66.900 7.61976E-34 7.61976E-34 0.00000E+00 0.00000E+00 0.00000E+00
 67.000 6.13127E-35 6.13127E-35 0.00000E+00 0.00000E+00 0.00000E+00
 67.100 4.72510E-36 4.72510E-36 0.00000E+00 0.00000E+00 0.00000E+00
 67.200 3.48757E-37 3.48757E-37 0.00000E+00 0.00000E+00 0.00000E+00
 67.300 2.46489E-38 2.46489E-38 0.00000E+00 0.00000E+00 0.00000E+00
 67.400 1.66882E-39 1.66882E-39 0.00000E+00 0.00000E+00 0.00000E+00
 67.500 1.08212E-40 1.08212E-40 0.00000E+00 0.00000E+00 0.00000E+00
 67.600 6.72063E-42 6.72063E-42 0.00000E+00 0.00000E+00 0.00000E+00
 67.700 3.99370E-43 3.99370E-43 0.00000E+00 0.00000E+00 0.00000E+00
 67.800 2.24208E-44 2.24208E-44 0.00000E+00 0.00000E+00 0.00000E+00
 67.900 1.40130E-45 1.40130E-45 0.00000E+00 0.00000E+00 0.00000E+00
 68.000 0.00000E+00 0.00000E+00 0.00000E+00 0.00000E+00 0.00000E+00
 68.100 0.00000E+00 0.00000E+00 0.00000E+00 0.00000E+00 0.00000E+00
 68.200 0.00000E+00 0.00000E+00 0.00000E+00 0.00000E+00 0.00000E+00
 68.300 0.00000E+00 0.00000E+00 0.00000E+00 0.00000E+00 0.00000E+00
 68.400 0.00000E+00 0.00000E+00 0.00000E+00 0.00000E+00 0.00000E+00
 68.500 0.00000E+00 0.00000E+00 0.00000E+00 0.00000E+00 0.00000E+00
 68.600 0.00000E+00 0.00000E+00 0.00000E+00 0.00000E+00 0.00000E+00
 68.700 0.00000E+00 0.00000E+00 0.00000E+00 0.00000E+00 0.00000E+00
 68.800 0.00000E+00 0.00000E+00 0.00000E+00 0.00000E+00 0.00000E+00
 68.900 0.00000E+00 0.00000E+00 0.00000E+00 0.00000E+00 0.00000E+00
 69.000 0.00000E+00 0.00000E+00 0.00000E+00 0.00000E+00 0.00000E+00
 69.100 0.00000E+00 0.00000E+00 0.00000E+00 0.00000E+00 0.00000E+00
 69.200 0.00000E+00 0.00000E+00 0.00000E+00 0.00000E+00 0.00000E+00
 69.300 0.00000E+00 0.00000E+00 0.00000E+00 0.00000E+00 0.00000E+00
 69.400 0.00000E+00 0.00000E+00 0.00000E+00 0.00000E+00 0.00000E+00
 69.500 0.00000E+00 0.00000E+00 0.00000E+00 0.00000E+00 0.00000E+00
 69.600 0.00000E+00 0.00000E+00 0.00000E+00 0.00000E+00 0.00000E+00
 69.700 0.00000E+00 0.00000E+00 0.00000E+00 0.00000E+00 0.00000E+00
 69.800 0.00000E+00 0.00000E+00 0.00000E+00 0.00000E+00 0.00000E+00
 69.900 0.00000E+00 0.00000E+00 0.00000E+00 0.00000E+00 0.00000E+00
 70.000 0.00000E+00 0.00000E+00 0.00000E+00 0.00000E+00 0.00000E+00
