# n + 209Bi: deuteron DDX spectrum
# E-incident =  63.000
# Angle      = 110.000
# # energies =227
# E-out    Total       Direct    Pre-equil.  Mult. preeq  Compound
  0.400 0.00000E+00 0.00000E+00 0.00000E+00 0.00000E+00 0.00000E+00
  0.500 0.00000E+00 0.00000E+00 0.00000E+00 0.00000E+00 0.00000E+00
  0.600 0.00000E+00 0.00000E+00 0.00000E+00 0.00000E+00 0.00000E+00
  0.700 1.40130E-44 0.00000E+00 1.40130E-44 0.00000E+00 0.00000E+00
  0.800 8.74761E-41 0.00000E+00 8.74761E-41 0.00000E+00 0.00000E+00
  0.900 1.21720E-37 0.00000E+00 1.21720E-37 0.00000E+00 0.00000E+00
  1.000 2.95925E-34 0.00000E+00 2.95925E-34 0.00000E+00 0.00000E+00
  1.100 5.67005E-32 0.00000E+00 5.67005E-32 0.00000E+00 0.00000E+00
  1.200 5.49792E-30 0.00000E+00 5.49792E-30 0.00000E+00 0.00000E+00
  1.300 3.08420E-28 0.00000E+00 3.08420E-28 0.00000E+00 0.00000E+00
  1.400 1.10536E-26 0.00000E+00 1.10536E-26 0.00000E+00 0.00000E+00
  1.500 2.73233E-25 0.00000E+00 2.73233E-25 0.00000E+00 0.00000E+00
  1.600 4.93961E-24 0.00000E+00 4.93961E-24 0.00000E+00 0.00000E+00
  1.700 6.84300E-23 0.00000E+00 6.84300E-23 0.00000E+00 0.00000E+00
  1.800 7.54152E-22 0.00000E+00 7.54152E-22 0.00000E+00 0.00000E+00
  1.900 6.81669E-21 0.00000E+00 6.81669E-21 0.00000E+00 0.00000E+00
  2.000 5.18050E-20 0.00000E+00 5.18050E-20 0.00000E+00 0.00000E+00
  2.200 1.92852E-18 0.00000E+00 1.92852E-18 0.00000E+00 0.00000E+00
  2.400 4.43160E-17 0.00000E+00 4.43160E-17 0.00000E+00 0.00000E+00
  2.600 6.90957E-16 0.00000E+00 6.90957E-16 0.00000E+00 0.00000E+00
  2.800 7.84706E-15 0.00000E+00 7.84706E-15 0.00000E+00 0.00000E+00
  3.000 2.10611E-11 0.00000E+00 6.84995E-14 0.00000E+00 2.09926E-11
  3.200 5.78067E-10 0.00000E+00 4.79488E-13 0.00000E+00 5.77588E-10
  3.400 3.46015E-09 0.00000E+00 2.78253E-12 0.00000E+00 3.45737E-09
  3.600 9.98779E-09 0.00000E+00 1.37505E-11 0.00000E+00 9.97404E-09
  3.800 3.11862E-08 0.00000E+00 5.91564E-11 0.00000E+00 3.11270E-08
  4.000 9.48001E-08 0.00000E+00 2.25578E-10 0.00000E+00 9.45745E-08
  4.500 7.94136E-07 0.00000E+00 4.14635E-09 0.00000E+00 7.89990E-07
  5.000 4.46888E-06 0.00000E+00 4.67386E-08 0.00000E+00 4.42214E-06
  5.500 1.47403E-05 0.00000E+00 3.63965E-07 0.00000E+00 1.43764E-05
  6.000 6.12890E-05 0.00000E+00 2.12619E-06 0.00000E+00 5.91628E-05
  6.500 1.70542E-04 0.00000E+00 9.87712E-06 0.00000E+00 1.60665E-04
  7.000 3.64340E-04 0.00000E+00 3.80354E-05 0.00000E+00 3.26305E-04
  7.500 8.69806E-04 0.00000E+00 1.24978E-04 0.00000E+00 7.44828E-04
  8.000 1.61228E-03 0.00000E+00 3.56869E-04 0.00000E+00 1.25541E-03
  8.500 2.71061E-03 0.00000E+00 8.92975E-04 0.00000E+00 1.81763E-03
  9.000 4.56342E-03 0.00000E+00 1.95822E-03 0.00000E+00 2.60520E-03
  9.500 6.79964E-03 0.00000E+00 3.75649E-03 0.00000E+00 3.04315E-03
 10.000 9.64784E-03 0.00000E+00 6.34446E-03 0.00000E+00 3.30338E-03
 10.500 1.28356E-02 0.00000E+00 9.61443E-03 0.00000E+00 3.22114E-03
 11.000 1.63255E-02 0.00000E+00 1.33910E-02 0.00000E+00 2.93447E-03
 11.500 1.99953E-02 0.00000E+00 1.75003E-02 0.00000E+00 2.49500E-03
 12.000 2.36653E-02 0.00000E+00 2.17712E-02 0.00000E+00 1.89406E-03
 12.500 2.75557E-02 0.00000E+00 2.60420E-02 0.00000E+00 1.51372E-03
 13.000 3.12453E-02 0.00000E+00 3.01649E-02 0.00000E+00 1.08043E-03
 13.500 3.47589E-02 0.00000E+00 3.40087E-02 0.00000E+00 7.50210E-04
 14.000 3.80252E-02 0.00000E+00 3.74839E-02 0.00000E+00 5.41297E-04
 14.500 4.09189E-02 0.00000E+00 4.05607E-02 0.00000E+00 3.58194E-04
 15.000 4.34941E-02 0.00000E+00 4.32526E-02 0.00000E+00 2.41445E-04
 15.500 4.57450E-02 0.00000E+00 4.55863E-02 0.00000E+00 1.58741E-04
 16.000 4.76910E-02 0.00000E+00 4.75869E-02 0.00000E+00 1.04141E-04
 16.500 4.93483E-02 0.00000E+00 4.92814E-02 0.00000E+00 6.69047E-05
 17.000 5.07418E-02 0.00000E+00 5.06984E-02 0.00000E+00 4.34204E-05
 17.500 5.18904E-02 0.00000E+00 5.18623E-02 0.00000E+00 2.80961E-05
 18.000 5.28068E-02 0.00000E+00 5.27898E-02 0.00000E+00 1.69990E-05
 18.500 5.35028E-02 0.00000E+00 5.34913E-02 0.00000E+00 1.14519E-05
 19.000 5.39820E-02 0.00000E+00 5.39750E-02 0.00000E+00 6.98061E-06
 19.500 5.42562E-02 0.00000E+00 5.42519E-02 0.00000E+00 4.24941E-06
 20.000 5.43410E-02 0.00000E+00 5.43383E-02 0.00000E+00 2.66299E-06
 21.000 5.40088E-02 0.00000E+00 5.40077E-02 0.00000E+00 1.06038E-06
 22.000 5.31150E-02 0.00000E+00 5.31146E-02 0.00000E+00 4.03595E-07
 23.000 5.17623E-02 0.00000E+00 5.17621E-02 0.00000E+00 1.54191E-07
 24.000 5.00193E-02 0.00000E+00 5.00192E-02 0.00000E+00 5.96129E-08
 25.000 4.79424E-02 0.00000E+00 4.79424E-02 0.00000E+00 2.19757E-08
 26.000 4.56047E-02 0.00000E+00 4.56047E-02 0.00000E+00 7.68733E-09
 27.000 4.31300E-02 0.00000E+00 4.31300E-02 0.00000E+00 2.66714E-09
 28.000 4.05802E-02 0.00000E+00 4.05802E-02 0.00000E+00 8.92886E-10
 29.000 3.79953E-02 0.00000E+00 3.79953E-02 0.00000E+00 1.51162E-10
 30.000 3.54057E-02 0.00000E+00 3.54057E-02 0.00000E+00 4.26690E-12
 31.000 3.28374E-02 0.00000E+00 3.28374E-02 0.00000E+00 0.00000E+00
 32.000 3.03135E-02 0.00000E+00 3.03135E-02 0.00000E+00 0.00000E+00
 33.000 2.78561E-02 0.00000E+00 2.78561E-02 0.00000E+00 0.00000E+00
 34.000 2.54850E-02 0.00000E+00 2.54850E-02 0.00000E+00 0.00000E+00
 35.000 2.32158E-02 0.00000E+00 2.32158E-02 0.00000E+00 0.00000E+00
 36.000 2.10588E-02 0.00000E+00 2.10588E-02 0.00000E+00 0.00000E+00
 37.000 1.90208E-02 0.00000E+00 1.90208E-02 0.00000E+00 0.00000E+00
 38.000 1.71056E-02 0.00000E+00 1.71056E-02 0.00000E+00 0.00000E+00
 39.000 1.53164E-02 0.00000E+00 1.53164E-02 0.00000E+00 0.00000E+00
 40.000 1.36550E-02 0.00000E+00 1.36550E-02 0.00000E+00 0.00000E+00
 42.000 1.07158E-02 0.00000E+00 1.07158E-02 0.00000E+00 0.00000E+00
 44.000 8.27113E-03 0.00000E+00 8.27113E-03 0.00000E+00 0.00000E+00
 46.000 6.28235E-03 0.00000E+00 6.28235E-03 0.00000E+00 0.00000E+00
 48.000 4.69872E-03 0.00000E+00 4.69872E-03 0.00000E+00 0.00000E+00
 50.000 3.46384E-03 0.00000E+00 3.46384E-03 0.00000E+00 0.00000E+00
 52.000 2.51947E-03 0.00000E+00 2.51947E-03 0.00000E+00 0.00000E+00
 54.000 1.80983E-03 0.00000E+00 1.80983E-03 0.00000E+00 0.00000E+00
 56.000 1.28492E-03 0.00000E+00 1.28492E-03 0.00000E+00 0.00000E+00
 56.100 1.23245E-03 7.42034E-06 1.22503E-03 0.00000E+00 0.00000E+00
 56.200 1.17876E-03 1.36228E-05 1.16514E-03 0.00000E+00 0.00000E+00
 56.300 1.12913E-03 2.38828E-05 1.10525E-03 0.00000E+00 0.00000E+00
 56.400 1.08537E-03 4.00181E-05 1.04536E-03 0.00000E+00 0.00000E+00
 56.500 1.04961E-03 6.41462E-05 9.85467E-04 0.00000E+00 0.00000E+00
 56.600 1.02405E-03 9.84702E-05 9.25577E-04 0.00000E+00 0.00000E+00
 56.700 1.01063E-03 1.44946E-04 8.65686E-04 0.00000E+00 0.00000E+00
 56.800 1.01067E-03 2.04874E-04 8.05796E-04 0.00000E+00 0.00000E+00
 56.900 1.02445E-03 2.78545E-04 7.45904E-04 0.00000E+00 0.00000E+00
 57.000 1.05101E-03 3.64998E-04 6.86014E-04 0.00000E+00 0.00000E+00
 57.100 1.08820E-03 4.62074E-04 6.26125E-04 0.00000E+00 0.00000E+00
 57.200 1.13300E-03 5.66769E-04 5.66233E-04 0.00000E+00 0.00000E+00
 57.300 1.18219E-03 6.75845E-04 5.06343E-04 0.00000E+00 0.00000E+00
 57.400 1.23309E-03 7.86635E-04 4.46451E-04 0.00000E+00 0.00000E+00
 57.500 1.28424E-03 8.97675E-04 3.86561E-04 0.00000E+00 0.00000E+00
 57.600 1.33570E-03 1.00902E-03 3.26672E-04 0.00000E+00 0.00000E+00
 57.700 1.38869E-03 1.12191E-03 2.66780E-04 0.00000E+00 0.00000E+00
 57.800 1.44457E-03 1.23768E-03 2.06890E-04 0.00000E+00 0.00000E+00
 57.900 1.50325E-03 1.35625E-03 1.46998E-04 0.00000E+00 0.00000E+00
 58.000 1.56156E-03 1.47445E-03 8.71083E-05 0.00000E+00 0.00000E+00
 58.100 1.66768E-03 1.58493E-03 8.27529E-05 0.00000E+00 0.00000E+00
 58.200 1.75466E-03 1.67626E-03 7.83974E-05 0.00000E+00 0.00000E+00
 58.300 1.80864E-03 1.73459E-03 7.40421E-05 0.00000E+00 0.00000E+00
 58.400 1.81627E-03 1.74658E-03 6.96866E-05 0.00000E+00 0.00000E+00
 58.500 1.76821E-03 1.70288E-03 6.53312E-05 0.00000E+00 0.00000E+00
 58.600 1.66203E-03 1.60106E-03 6.09759E-05 0.00000E+00 0.00000E+00
 58.700 1.50353E-03 1.44691E-03 5.66204E-05 0.00000E+00 0.00000E+00
 58.800 1.30599E-03 1.25373E-03 5.22650E-05 0.00000E+00 0.00000E+00
 58.900 1.08751E-03 1.03960E-03 4.79095E-05 0.00000E+00 0.00000E+00
 59.000 8.67376E-04 8.23822E-04 4.35541E-05 0.00000E+00 0.00000E+00
 59.100 6.62472E-04 6.23273E-04 3.91988E-05 0.00000E+00 0.00000E+00
 59.200 4.84771E-04 4.49928E-04 3.48433E-05 0.00000E+00 0.00000E+00
 59.300 3.40408E-04 3.09920E-04 3.04879E-05 0.00000E+00 0.00000E+00
 59.400 2.30137E-04 2.04005E-04 2.61324E-05 0.00000E+00 0.00000E+00
 59.500 1.50870E-04 1.29093E-04 2.17771E-05 0.00000E+00 0.00000E+00
 59.600 9.74989E-05 8.00771E-05 1.74217E-05 0.00000E+00 0.00000E+00
 59.700 6.45998E-05 5.15336E-05 1.30662E-05 0.00000E+00 0.00000E+00
 59.800 4.76370E-05 3.89261E-05 8.71086E-06 0.00000E+00 0.00000E+00
 59.900 4.35823E-05 3.92270E-05 4.35535E-06 0.00000E+00 0.00000E+00
 60.000 5.10335E-05 5.10335E-05 0.00000E+00 0.00000E+00 0.00000E+00
 60.100 7.42809E-05 7.42809E-05 0.00000E+00 0.00000E+00 0.00000E+00
 60.200 1.09677E-04 1.09677E-04 0.00000E+00 0.00000E+00 0.00000E+00
 60.300 1.57955E-04 1.57955E-04 0.00000E+00 0.00000E+00 0.00000E+00
 60.400 2.19075E-04 2.19075E-04 0.00000E+00 0.00000E+00 0.00000E+00
 60.500 2.91474E-04 2.91474E-04 0.00000E+00 0.00000E+00 0.00000E+00
 60.600 3.71588E-04 3.71588E-04 0.00000E+00 0.00000E+00 0.00000E+00
 60.700 4.53771E-04 4.53771E-04 0.00000E+00 0.00000E+00 0.00000E+00
 60.800 5.30733E-04 5.30733E-04 0.00000E+00 0.00000E+00 0.00000E+00
 60.900 5.94530E-04 5.94530E-04 0.00000E+00 0.00000E+00 0.00000E+00
 61.000 6.37854E-04 6.37854E-04 0.00000E+00 0.00000E+00 0.00000E+00
 61.100 6.55422E-04 6.55422E-04 0.00000E+00 0.00000E+00 0.00000E+00
 61.200 6.45017E-04 6.45017E-04 0.00000E+00 0.00000E+00 0.00000E+00
 61.300 6.07957E-04 6.07957E-04 0.00000E+00 0.00000E+00 0.00000E+00
 61.400 5.48812E-04 5.48812E-04 0.00000E+00 0.00000E+00 0.00000E+00
 61.500 4.74490E-04 4.74490E-04 0.00000E+00 0.00000E+00 0.00000E+00
 61.600 3.92900E-04 3.92900E-04 0.00000E+00 0.00000E+00 0.00000E+00
 61.700 3.11590E-04 3.11590E-04 0.00000E+00 0.00000E+00 0.00000E+00
 61.800 2.36668E-04 2.36668E-04 0.00000E+00 0.00000E+00 0.00000E+00
 61.900 1.72164E-04 1.72164E-04 0.00000E+00 0.00000E+00 0.00000E+00
 62.000 1.19950E-04 1.19950E-04 0.00000E+00 0.00000E+00 0.00000E+00
 62.100 8.00407E-05 8.00407E-05 0.00000E+00 0.00000E+00 0.00000E+00
 62.200 5.11522E-05 5.11522E-05 0.00000E+00 0.00000E+00 0.00000E+00
 62.300 3.13095E-05 3.13095E-05 0.00000E+00 0.00000E+00 0.00000E+00
 62.400 1.83539E-05 1.83539E-05 0.00000E+00 0.00000E+00 0.00000E+00
 62.500 1.03049E-05 1.03049E-05 0.00000E+00 0.00000E+00 0.00000E+00
 62.600 5.54125E-06 5.54125E-06 0.00000E+00 0.00000E+00 0.00000E+00
 62.700 2.85373E-06 2.85373E-06 0.00000E+00 0.00000E+00 0.00000E+00
 62.800 1.40760E-06 1.40760E-06 0.00000E+00 0.00000E+00 0.00000E+00
 62.900 6.64944E-07 6.64944E-07 0.00000E+00 0.00000E+00 0.00000E+00
 63.000 3.00852E-07 3.00852E-07 0.00000E+00 0.00000E+00 0.00000E+00
 63.100 1.30369E-07 1.30369E-07 0.00000E+00 0.00000E+00 0.00000E+00
 63.200 5.41040E-08 5.41040E-08 0.00000E+00 0.00000E+00 0.00000E+00
 63.300 2.15056E-08 2.15056E-08 0.00000E+00 0.00000E+00 0.00000E+00
 63.400 8.18669E-09 8.18669E-09 0.00000E+00 0.00000E+00 0.00000E+00
 63.500 2.98491E-09 2.98491E-09 0.00000E+00 0.00000E+00 0.00000E+00
 63.600 1.04233E-09 1.04233E-09 0.00000E+00 0.00000E+00 0.00000E+00
 63.700 3.48590E-10 3.48590E-10 0.00000E+00 0.00000E+00 0.00000E+00
 63.800 1.11658E-10 1.11658E-10 0.00000E+00 0.00000E+00 0.00000E+00
 63.900 3.42531E-11 3.42531E-11 0.00000E+00 0.00000E+00 0.00000E+00
 64.000 1.00642E-11 1.00642E-11 0.00000E+00 0.00000E+00 0.00000E+00
 64.100 2.83210E-12 2.83210E-12 0.00000E+00 0.00000E+00 0.00000E+00
 64.200 7.63291E-13 7.63291E-13 0.00000E+00 0.00000E+00 0.00000E+00
 64.300 1.97005E-13 1.97005E-13 0.00000E+00 0.00000E+00 0.00000E+00
 64.400 4.87035E-14 4.87035E-14 0.00000E+00 0.00000E+00 0.00000E+00
 64.500 1.15317E-14 1.15317E-14 0.00000E+00 0.00000E+00 0.00000E+00
 64.600 2.61504E-15 2.61504E-15 0.00000E+00 0.00000E+00 0.00000E+00
 64.700 5.67957E-16 5.67957E-16 0.00000E+00 0.00000E+00 0.00000E+00
 64.800 1.18127E-16 1.18127E-16 0.00000E+00 0.00000E+00 0.00000E+00
 64.900 2.35336E-17 2.35336E-17 0.00000E+00 0.00000E+00 0.00000E+00
 65.000 4.49032E-18 4.49032E-18 0.00000E+00 0.00000E+00 0.00000E+00
 65.100 8.20573E-19 8.20573E-19 0.00000E+00 0.00000E+00 0.00000E+00
 65.200 1.43618E-19 1.43618E-19 0.00000E+00 0.00000E+00 0.00000E+00
 65.300 2.40709E-20 2.40709E-20 0.00000E+00 0.00000E+00 0.00000E+00
 65.400 3.86442E-21 3.86442E-21 0.00000E+00 0.00000E+00 0.00000E+00
 65.500 5.94194E-22 5.94194E-22 0.00000E+00 0.00000E+00 0.00000E+00
 65.600 8.75031E-23 8.75031E-23 0.00000E+00 0.00000E+00 0.00000E+00
 65.700 1.23416E-23 1.23416E-23 0.00000E+00 0.00000E+00 0.00000E+00
 65.800 1.66687E-24 1.66687E-24 0.00000E+00 0.00000E+00 0.00000E+00
 65.900 2.15650E-25 2.15650E-25 0.00000E+00 0.00000E+00 0.00000E+00
 66.000 2.67207E-26 2.67207E-26 0.00000E+00 0.00000E+00 0.00000E+00
 66.100 3.17101E-27 3.17101E-27 0.00000E+00 0.00000E+00 0.00000E+00
 66.200 3.60413E-28 3.60413E-28 0.00000E+00 0.00000E+00 0.00000E+00
 66.300 3.92264E-29 3.92264E-29 0.00000E+00 0.00000E+00 0.00000E+00
 66.400 4.08961E-30 4.08961E-30 0.00000E+00 0.00000E+00 0.00000E+00
 66.500 4.08353E-31 4.08353E-31 0.00000E+00 0.00000E+00 0.00000E+00
 66.600 3.90518E-32 3.90518E-32 0.00000E+00 0.00000E+00 0.00000E+00
 66.700 3.57683E-33 3.57683E-33 0.00000E+00 0.00000E+00 0.00000E+00
 66.800 3.13707E-34 3.13707E-34 0.00000E+00 0.00000E+00 0.00000E+00
 66.900 2.63562E-35 2.63562E-35 0.00000E+00 0.00000E+00 0.00000E+00
 67.000 2.12076E-36 2.12076E-36 0.00000E+00 0.00000E+00 0.00000E+00
 67.100 1.63438E-37 1.63438E-37 0.00000E+00 0.00000E+00 0.00000E+00
 67.200 1.20632E-38 1.20632E-38 0.00000E+00 0.00000E+00 0.00000E+00
 67.300 8.52586E-40 8.52586E-40 0.00000E+00 0.00000E+00 0.00000E+00
 67.400 5.77237E-41 5.77237E-41 0.00000E+00 0.00000E+00 0.00000E+00
 67.500 3.74287E-42 3.74287E-42 0.00000E+00 0.00000E+00 0.00000E+00
 67.600 2.32616E-43 2.32616E-43 0.00000E+00 0.00000E+00 0.00000E+00
 67.700 1.40130E-44 1.40130E-44 0.00000E+00 0.00000E+00 0.00000E+00
 67.800 1.40130E-45 1.40130E-45 0.00000E+00 0.00000E+00 0.00000E+00
 67.900 0.00000E+00 0.00000E+00 0.00000E+00 0.00000E+00 0.00000E+00
 68.000 0.00000E+00 0.00000E+00 0.00000E+00 0.00000E+00 0.00000E+00
 68.100 0.00000E+00 0.00000E+00 0.00000E+00 0.00000E+00 0.00000E+00
 68.200 0.00000E+00 0.00000E+00 0.00000E+00 0.00000E+00 0.00000E+00
 68.300 0.00000E+00 0.00000E+00 0.00000E+00 0.00000E+00 0.00000E+00
 68.400 0.00000E+00 0.00000E+00 0.00000E+00 0.00000E+00 0.00000E+00
 68.500 0.00000E+00 0.00000E+00 0.00000E+00 0.00000E+00 0.00000E+00
 68.600 0.00000E+00 0.00000E+00 0.00000E+00 0.00000E+00 0.00000E+00
 68.700 0.00000E+00 0.00000E+00 0.00000E+00 0.00000E+00 0.00000E+00
 68.800 0.00000E+00 0.00000E+00 0.00000E+00 0.00000E+00 0.00000E+00
 68.900 0.00000E+00 0.00000E+00 0.00000E+00 0.00000E+00 0.00000E+00
 69.000 0.00000E+00 0.00000E+00 0.00000E+00 0.00000E+00 0.00000E+00
 69.100 0.00000E+00 0.00000E+00 0.00000E+00 0.00000E+00 0.00000E+00
 69.200 0.00000E+00 0.00000E+00 0.00000E+00 0.00000E+00 0.00000E+00
 69.300 0.00000E+00 0.00000E+00 0.00000E+00 0.00000E+00 0.00000E+00
 69.400 0.00000E+00 0.00000E+00 0.00000E+00 0.00000E+00 0.00000E+00
 69.500 0.00000E+00 0.00000E+00 0.00000E+00 0.00000E+00 0.00000E+00
 69.600 0.00000E+00 0.00000E+00 0.00000E+00 0.00000E+00 0.00000E+00
 69.700 0.00000E+00 0.00000E+00 0.00000E+00 0.00000E+00 0.00000E+00
 69.800 0.00000E+00 0.00000E+00 0.00000E+00 0.00000E+00 0.00000E+00
 69.900 0.00000E+00 0.00000E+00 0.00000E+00 0.00000E+00 0.00000E+00
 70.000 0.00000E+00 0.00000E+00 0.00000E+00 0.00000E+00 0.00000E+00
