# n + 209Bi: deuteron DDX spectrum
# E-incident =   63.000
# Angle      = 110.000
# # energies =   227
#  E-out    Total       Direct    Pre-equil.  Mult. preeq  Compound
   0.400 0.00000E+00 0.00000E+00 0.00000E+00 0.00000E+00 0.00000E+00
   0.500 0.00000E+00 0.00000E+00 0.00000E+00 0.00000E+00 0.00000E+00
   0.600 0.00000E+00 0.00000E+00 0.00000E+00 0.00000E+00 0.00000E+00
   0.700 2.48389E-13 0.00000E+00 0.00000E+00 0.00000E+00 2.48389E-13
   0.800 4.31829E-12 0.00000E+00 0.00000E+00 0.00000E+00 4.31829E-12
   0.900 1.94137E-11 0.00000E+00 1.19988E-37 0.00000E+00 1.94137E-11
   1.000 1.97493E-11 0.00000E+00 2.96165E-34 0.00000E+00 1.97493E-11
   1.100 2.08655E-11 0.00000E+00 5.67464E-32 0.00000E+00 2.08655E-11
   1.200 2.30918E-11 0.00000E+00 5.50235E-30 0.00000E+00 2.30918E-11
   1.300 2.84699E-11 0.00000E+00 3.08668E-28 0.00000E+00 2.84699E-11
   1.400 3.23334E-11 0.00000E+00 1.10625E-26 0.00000E+00 3.23334E-11
   1.500 3.28313E-11 0.00000E+00 2.73452E-25 0.00000E+00 3.28313E-11
   1.600 3.40876E-11 0.00000E+00 4.94355E-24 0.00000E+00 3.40876E-11
   1.700 4.73809E-11 0.00000E+00 6.84844E-23 0.00000E+00 4.73809E-11
   1.800 1.30233E-07 0.00000E+00 7.54751E-22 0.00000E+00 1.30233E-07
   1.900 2.69068E-07 0.00000E+00 6.82210E-21 0.00000E+00 2.69068E-07
   2.000 2.75440E-07 0.00000E+00 5.18458E-20 0.00000E+00 2.75440E-07
   2.200 2.89555E-07 0.00000E+00 1.93003E-18 0.00000E+00 2.89555E-07
   2.400 3.04800E-07 0.00000E+00 4.43505E-17 0.00000E+00 3.04800E-07
   2.600 3.23787E-07 0.00000E+00 6.91492E-16 0.00000E+00 3.23787E-07
   2.800 3.79576E-07 0.00000E+00 7.85310E-15 0.00000E+00 3.79576E-07
   3.000 3.13474E-06 0.00000E+00 6.85587E-14 0.00000E+00 3.13474E-06
   3.200 4.50653E-06 0.00000E+00 4.79853E-13 0.00000E+00 4.50653E-06
   3.400 4.72016E-06 0.00000E+00 2.78463E-12 0.00000E+00 4.72015E-06
   3.600 5.65297E-06 0.00000E+00 1.37608E-11 0.00000E+00 5.65295E-06
   3.800 6.00459E-06 0.00000E+00 5.92006E-11 0.00000E+00 6.00453E-06
   4.000 7.14733E-06 0.00000E+00 2.25746E-10 0.00000E+00 7.14710E-06
   4.500 1.05230E-05 0.00000E+00 4.14938E-09 0.00000E+00 1.05189E-05
   5.000 2.92845E-05 0.00000E+00 4.67722E-08 0.00000E+00 2.92377E-05
   5.500 7.70228E-05 0.00000E+00 3.64222E-07 0.00000E+00 7.66586E-05
   6.000 1.38371E-04 0.00000E+00 2.12766E-06 0.00000E+00 1.36243E-04
   6.500 1.96602E-04 0.00000E+00 9.88385E-06 0.00000E+00 1.86718E-04
   7.000 2.78123E-04 0.00000E+00 3.80608E-05 0.00000E+00 2.40062E-04
   7.500 4.16505E-04 0.00000E+00 1.25060E-04 0.00000E+00 2.91445E-04
   8.000 7.26895E-04 0.00000E+00 3.57098E-04 0.00000E+00 3.69797E-04
   8.500 1.35245E-03 0.00000E+00 8.93540E-04 0.00000E+00 4.58914E-04
   9.000 2.50050E-03 0.00000E+00 1.95943E-03 0.00000E+00 5.41066E-04
   9.500 4.33313E-03 0.00000E+00 3.75877E-03 0.00000E+00 5.74359E-04
  10.000 6.92803E-03 0.00000E+00 6.34823E-03 0.00000E+00 5.79803E-04
  10.500 1.01848E-02 0.00000E+00 9.62002E-03 0.00000E+00 5.64791E-04
  11.000 1.39435E-02 0.00000E+00 1.33986E-02 0.00000E+00 5.44882E-04
  11.500 1.80159E-02 0.00000E+00 1.75100E-02 0.00000E+00 5.05912E-04
  12.000 2.22330E-02 0.00000E+00 2.17831E-02 0.00000E+00 4.49969E-04
  12.500 2.64310E-02 0.00000E+00 2.60559E-02 0.00000E+00 3.75166E-04
  13.000 3.04996E-02 0.00000E+00 3.01806E-02 0.00000E+00 3.18966E-04
  13.500 3.42783E-02 0.00000E+00 3.40260E-02 0.00000E+00 2.52272E-04
  14.000 3.76952E-02 0.00000E+00 3.75025E-02 0.00000E+00 1.92741E-04
  14.500 4.07244E-02 0.00000E+00 4.05803E-02 0.00000E+00 1.44050E-04
  15.000 4.33633E-02 0.00000E+00 4.32731E-02 0.00000E+00 9.01868E-05
  15.500 4.56741E-02 0.00000E+00 4.56073E-02 0.00000E+00 6.67694E-05
  16.000 4.76605E-02 0.00000E+00 4.76083E-02 0.00000E+00 5.21992E-05
  16.500 4.93340E-02 0.00000E+00 4.93030E-02 0.00000E+00 3.10032E-05
  17.000 5.07385E-02 0.00000E+00 5.07201E-02 0.00000E+00 1.84142E-05
  17.500 5.18954E-02 0.00000E+00 5.18839E-02 0.00000E+00 1.14622E-05
  18.000 5.28201E-02 0.00000E+00 5.28112E-02 0.00000E+00 8.82608E-06
  18.500 5.35195E-02 0.00000E+00 5.35125E-02 0.00000E+00 6.99165E-06
  19.000 5.39995E-02 0.00000E+00 5.39959E-02 0.00000E+00 3.59616E-06
  19.500 5.42742E-02 0.00000E+00 5.42724E-02 0.00000E+00 1.81083E-06
  20.000 5.43596E-02 0.00000E+00 5.43583E-02 0.00000E+00 1.35864E-06
  21.000 5.40274E-02 0.00000E+00 5.40266E-02 0.00000E+00 7.56707E-07
  22.000 5.31325E-02 0.00000E+00 5.31323E-02 0.00000E+00 2.25626E-07
  23.000 5.17786E-02 0.00000E+00 5.17785E-02 0.00000E+00 1.27083E-07
  24.000 5.00343E-02 0.00000E+00 5.00343E-02 0.00000E+00 5.84864E-08
  25.000 4.79562E-02 0.00000E+00 4.79562E-02 0.00000E+00 2.07183E-08
  26.000 4.56173E-02 0.00000E+00 4.56173E-02 0.00000E+00 1.16048E-08
  27.000 4.31414E-02 0.00000E+00 4.31414E-02 0.00000E+00 3.30401E-09
  28.000 4.05905E-02 0.00000E+00 4.05905E-02 0.00000E+00 2.01691E-09
  29.000 3.80045E-02 0.00000E+00 3.80045E-02 0.00000E+00 7.59653E-10
  30.000 3.54140E-02 0.00000E+00 3.54140E-02 0.00000E+00 3.32515E-10
  31.000 3.28448E-02 0.00000E+00 3.28448E-02 0.00000E+00 1.36579E-10
  32.000 3.03202E-02 0.00000E+00 3.03202E-02 0.00000E+00 0.00000E+00
  33.000 2.78620E-02 0.00000E+00 2.78620E-02 0.00000E+00 0.00000E+00
  34.000 2.54902E-02 0.00000E+00 2.54902E-02 0.00000E+00 0.00000E+00
  35.000 2.32204E-02 0.00000E+00 2.32204E-02 0.00000E+00 0.00000E+00
  36.000 2.10629E-02 0.00000E+00 2.10629E-02 0.00000E+00 0.00000E+00
  37.000 1.90244E-02 0.00000E+00 1.90244E-02 0.00000E+00 0.00000E+00
  38.000 1.71087E-02 0.00000E+00 1.71087E-02 0.00000E+00 0.00000E+00
  39.000 1.53192E-02 0.00000E+00 1.53192E-02 0.00000E+00 0.00000E+00
  40.000 1.36574E-02 0.00000E+00 1.36574E-02 0.00000E+00 0.00000E+00
  42.000 1.07177E-02 0.00000E+00 1.07177E-02 0.00000E+00 0.00000E+00
  44.000 8.27253E-03 0.00000E+00 8.27253E-03 0.00000E+00 0.00000E+00
  46.000 6.28340E-03 0.00000E+00 6.28340E-03 0.00000E+00 0.00000E+00
  48.000 4.69949E-03 0.00000E+00 4.69949E-03 0.00000E+00 0.00000E+00
  50.000 3.46441E-03 0.00000E+00 3.46441E-03 0.00000E+00 0.00000E+00
  52.000 2.51988E-03 0.00000E+00 2.51988E-03 0.00000E+00 0.00000E+00
  54.000 1.81013E-03 0.00000E+00 1.81013E-03 0.00000E+00 0.00000E+00
  56.000 1.28513E-03 0.00000E+00 1.28513E-03 0.00000E+00 0.00000E+00
  56.100 1.23266E-03 7.43294E-06 1.22523E-03 0.00000E+00 0.00000E+00
  56.200 1.17897E-03 1.36443E-05 1.16532E-03 0.00000E+00 0.00000E+00
  56.300 1.12934E-03 2.39176E-05 1.10542E-03 0.00000E+00 0.00000E+00
  56.400 1.08558E-03 4.00717E-05 1.04551E-03 0.00000E+00 0.00000E+00
  56.500 1.04983E-03 6.42248E-05 9.85606E-04 0.00000E+00 0.00000E+00
  56.600 1.02428E-03 9.85801E-05 9.25701E-04 0.00000E+00 0.00000E+00
  56.700 1.01089E-03 1.45092E-04 8.65794E-04 0.00000E+00 0.00000E+00
  56.800 1.01095E-03 2.05060E-04 8.05889E-04 0.00000E+00 0.00000E+00
  56.900 1.02475E-03 2.78772E-04 7.45982E-04 0.00000E+00 0.00000E+00
  57.000 1.05134E-03 3.65263E-04 6.86078E-04 0.00000E+00 0.00000E+00
  57.100 1.08855E-03 4.62373E-04 6.26173E-04 0.00000E+00 0.00000E+00
  57.200 1.13336E-03 5.67093E-04 5.66266E-04 0.00000E+00 0.00000E+00
  57.300 1.18255E-03 6.76186E-04 5.06361E-04 0.00000E+00 0.00000E+00
  57.400 1.23344E-03 7.86985E-04 4.46454E-04 0.00000E+00 0.00000E+00
  57.500 1.28458E-03 8.98029E-04 3.86550E-04 0.00000E+00 0.00000E+00
  57.600 1.33602E-03 1.00938E-03 3.26645E-04 0.00000E+00 0.00000E+00
  57.700 1.38900E-03 1.12226E-03 2.66738E-04 0.00000E+00 0.00000E+00
  57.800 1.44487E-03 1.23803E-03 2.06833E-04 0.00000E+00 0.00000E+00
  57.900 1.50354E-03 1.35662E-03 1.46926E-04 0.00000E+00 0.00000E+00
  58.000 1.56185E-03 1.47483E-03 8.70214E-05 0.00000E+00 0.00000E+00
  58.100 1.66798E-03 1.58531E-03 8.26704E-05 0.00000E+00 0.00000E+00
  58.200 1.75496E-03 1.67664E-03 7.83192E-05 0.00000E+00 0.00000E+00
  58.300 1.80893E-03 1.73497E-03 7.39682E-05 0.00000E+00 0.00000E+00
  58.400 1.81655E-03 1.74694E-03 6.96170E-05 0.00000E+00 0.00000E+00
  58.500 1.76847E-03 1.70321E-03 6.52660E-05 0.00000E+00 0.00000E+00
  58.600 1.66226E-03 1.60135E-03 6.09150E-05 0.00000E+00 0.00000E+00
  58.700 1.50372E-03 1.44716E-03 5.65638E-05 0.00000E+00 0.00000E+00
  58.800 1.30614E-03 1.25392E-03 5.22128E-05 0.00000E+00 0.00000E+00
  58.900 1.08761E-03 1.03975E-03 4.78617E-05 0.00000E+00 0.00000E+00
  59.000 8.67442E-04 8.23931E-04 4.35107E-05 0.00000E+00 0.00000E+00
  59.100 6.62508E-04 6.23348E-04 3.91597E-05 0.00000E+00 0.00000E+00
  59.200 4.84784E-04 4.49976E-04 3.48085E-05 0.00000E+00 0.00000E+00
  59.300 3.40407E-04 3.09949E-04 3.04575E-05 0.00000E+00 0.00000E+00
  59.400 2.30128E-04 2.04022E-04 2.61063E-05 0.00000E+00 0.00000E+00
  59.500 1.50859E-04 1.29103E-04 2.17553E-05 0.00000E+00 0.00000E+00
  59.600 9.74886E-05 8.00843E-05 1.74043E-05 0.00000E+00 0.00000E+00
  59.700 6.45943E-05 5.15411E-05 1.30532E-05 0.00000E+00 0.00000E+00
  59.800 4.76391E-05 3.89369E-05 8.70217E-06 0.00000E+00 0.00000E+00
  59.900 4.35951E-05 3.92441E-05 4.35100E-06 0.00000E+00 0.00000E+00
  60.000 5.10605E-05 5.10605E-05 0.00000E+00 0.00000E+00 0.00000E+00
  60.100 7.43219E-05 7.43219E-05 0.00000E+00 0.00000E+00 0.00000E+00
  60.200 1.09737E-04 1.09737E-04 0.00000E+00 0.00000E+00 0.00000E+00
  60.300 1.58038E-04 1.58038E-04 0.00000E+00 0.00000E+00 0.00000E+00
  60.400 2.19185E-04 2.19185E-04 0.00000E+00 0.00000E+00 0.00000E+00
  60.500 2.91614E-04 2.91614E-04 0.00000E+00 0.00000E+00 0.00000E+00
  60.600 3.71757E-04 3.71757E-04 0.00000E+00 0.00000E+00 0.00000E+00
  60.700 4.53967E-04 4.53967E-04 0.00000E+00 0.00000E+00 0.00000E+00
  60.800 5.30949E-04 5.30949E-04 0.00000E+00 0.00000E+00 0.00000E+00
  60.900 5.94757E-04 5.94757E-04 0.00000E+00 0.00000E+00 0.00000E+00
  61.000 6.38083E-04 6.38083E-04 0.00000E+00 0.00000E+00 0.00000E+00
  61.100 6.55641E-04 6.55641E-04 0.00000E+00 0.00000E+00 0.00000E+00
  61.200 6.45216E-04 6.45216E-04 0.00000E+00 0.00000E+00 0.00000E+00
  61.300 6.08130E-04 6.08130E-04 0.00000E+00 0.00000E+00 0.00000E+00
  61.400 5.48954E-04 5.48954E-04 0.00000E+00 0.00000E+00 0.00000E+00
  61.500 4.74601E-04 4.74601E-04 0.00000E+00 0.00000E+00 0.00000E+00
  61.600 3.92982E-04 3.92982E-04 0.00000E+00 0.00000E+00 0.00000E+00
  61.700 3.11647E-04 3.11647E-04 0.00000E+00 0.00000E+00 0.00000E+00
  61.800 2.36706E-04 2.36706E-04 0.00000E+00 0.00000E+00 0.00000E+00
  61.900 1.72187E-04 1.72187E-04 0.00000E+00 0.00000E+00 0.00000E+00
  62.000 1.19963E-04 1.19963E-04 0.00000E+00 0.00000E+00 0.00000E+00
  62.100 8.00471E-05 8.00471E-05 0.00000E+00 0.00000E+00 0.00000E+00
  62.200 5.11549E-05 5.11549E-05 0.00000E+00 0.00000E+00 0.00000E+00
  62.300 3.13104E-05 3.13104E-05 0.00000E+00 0.00000E+00 0.00000E+00
  62.400 1.83540E-05 1.83540E-05 0.00000E+00 0.00000E+00 0.00000E+00
  62.500 1.03046E-05 1.03046E-05 0.00000E+00 0.00000E+00 0.00000E+00
  62.600 5.54097E-06 5.54097E-06 0.00000E+00 0.00000E+00 0.00000E+00
  62.700 2.85351E-06 2.85351E-06 0.00000E+00 0.00000E+00 0.00000E+00
  62.800 1.40745E-06 1.40745E-06 0.00000E+00 0.00000E+00 0.00000E+00
  62.900 6.64856E-07 6.64856E-07 0.00000E+00 0.00000E+00 0.00000E+00
  63.000 3.00805E-07 3.00805E-07 0.00000E+00 0.00000E+00 0.00000E+00
  63.100 1.30344E-07 1.30344E-07 0.00000E+00 0.00000E+00 0.00000E+00
  63.200 5.40925E-08 5.40925E-08 0.00000E+00 0.00000E+00 0.00000E+00
  63.300 2.15004E-08 2.15004E-08 0.00000E+00 0.00000E+00 0.00000E+00
  63.400 8.18450E-09 8.18450E-09 0.00000E+00 0.00000E+00 0.00000E+00
  63.500 2.98403E-09 2.98403E-09 0.00000E+00 0.00000E+00 0.00000E+00
  63.600 1.04200E-09 1.04200E-09 0.00000E+00 0.00000E+00 0.00000E+00
  63.700 3.48467E-10 3.48467E-10 0.00000E+00 0.00000E+00 0.00000E+00
  63.800 1.11616E-10 1.11616E-10 0.00000E+00 0.00000E+00 0.00000E+00
  63.900 3.42392E-11 3.42392E-11 0.00000E+00 0.00000E+00 0.00000E+00
  64.000 1.00598E-11 1.00598E-11 0.00000E+00 0.00000E+00 0.00000E+00
  64.100 2.83078E-12 2.83078E-12 0.00000E+00 0.00000E+00 0.00000E+00
  64.200 7.62915E-13 7.62915E-13 0.00000E+00 0.00000E+00 0.00000E+00
  64.300 1.96902E-13 1.96902E-13 0.00000E+00 0.00000E+00 0.00000E+00
  64.400 4.86767E-14 4.86767E-14 0.00000E+00 0.00000E+00 0.00000E+00
  64.500 1.15250E-14 1.15250E-14 0.00000E+00 0.00000E+00 0.00000E+00
  64.600 2.61345E-15 2.61345E-15 0.00000E+00 0.00000E+00 0.00000E+00
  64.700 5.67594E-16 5.67594E-16 0.00000E+00 0.00000E+00 0.00000E+00
  64.800 1.18049E-16 1.18049E-16 0.00000E+00 0.00000E+00 0.00000E+00
  64.900 2.35172E-17 2.35172E-17 0.00000E+00 0.00000E+00 0.00000E+00
  65.000 4.48705E-18 4.48705E-18 0.00000E+00 0.00000E+00 0.00000E+00
  65.100 8.19951E-19 8.19951E-19 0.00000E+00 0.00000E+00 0.00000E+00
  65.200 1.43505E-19 1.43505E-19 0.00000E+00 0.00000E+00 0.00000E+00
  65.300 2.40512E-20 2.40512E-20 0.00000E+00 0.00000E+00 0.00000E+00
  65.400 3.86115E-21 3.86115E-21 0.00000E+00 0.00000E+00 0.00000E+00
  65.500 5.93673E-22 5.93673E-22 0.00000E+00 0.00000E+00 0.00000E+00
  65.600 8.74238E-23 8.74238E-23 0.00000E+00 0.00000E+00 0.00000E+00
  65.700 1.23300E-23 1.23300E-23 0.00000E+00 0.00000E+00 0.00000E+00
  65.800 1.66525E-24 1.66525E-24 0.00000E+00 0.00000E+00 0.00000E+00
  65.900 2.15434E-25 2.15434E-25 0.00000E+00 0.00000E+00 0.00000E+00
  66.000 2.66932E-26 2.66932E-26 0.00000E+00 0.00000E+00 0.00000E+00
  66.100 3.16765E-27 3.16765E-27 0.00000E+00 0.00000E+00 0.00000E+00
  66.200 3.60020E-28 3.60020E-28 0.00000E+00 0.00000E+00 0.00000E+00
  66.300 3.91823E-29 3.91823E-29 0.00000E+00 0.00000E+00 0.00000E+00
  66.400 4.08488E-30 4.08488E-30 0.00000E+00 0.00000E+00 0.00000E+00
  66.500 4.07869E-31 4.07869E-31 0.00000E+00 0.00000E+00 0.00000E+00
  66.600 3.90043E-32 3.90043E-32 0.00000E+00 0.00000E+00 0.00000E+00
  66.700 3.57237E-33 3.57237E-33 0.00000E+00 0.00000E+00 0.00000E+00
  66.800 3.13308E-34 3.13308E-34 0.00000E+00 0.00000E+00 0.00000E+00
  66.900 2.63217E-35 2.63217E-35 0.00000E+00 0.00000E+00 0.00000E+00
  67.000 2.11791E-36 2.11791E-36 0.00000E+00 0.00000E+00 0.00000E+00
  67.100 1.63213E-37 1.63213E-37 0.00000E+00 0.00000E+00 0.00000E+00
  67.200 1.20462E-38 1.20462E-38 0.00000E+00 0.00000E+00 0.00000E+00
  67.300 0.00000E+00 0.00000E+00 0.00000E+00 0.00000E+00 0.00000E+00
  67.400 0.00000E+00 0.00000E+00 0.00000E+00 0.00000E+00 0.00000E+00
  67.500 0.00000E+00 0.00000E+00 0.00000E+00 0.00000E+00 0.00000E+00
  67.600 0.00000E+00 0.00000E+00 0.00000E+00 0.00000E+00 0.00000E+00
  67.700 0.00000E+00 0.00000E+00 0.00000E+00 0.00000E+00 0.00000E+00
  67.800 0.00000E+00 0.00000E+00 0.00000E+00 0.00000E+00 0.00000E+00
  67.900 0.00000E+00 0.00000E+00 0.00000E+00 0.00000E+00 0.00000E+00
  68.000 0.00000E+00 0.00000E+00 0.00000E+00 0.00000E+00 0.00000E+00
  68.100 0.00000E+00 0.00000E+00 0.00000E+00 0.00000E+00 0.00000E+00
  68.200 0.00000E+00 0.00000E+00 0.00000E+00 0.00000E+00 0.00000E+00
  68.300 0.00000E+00 0.00000E+00 0.00000E+00 0.00000E+00 0.00000E+00
  68.400 0.00000E+00 0.00000E+00 0.00000E+00 0.00000E+00 0.00000E+00
  68.500 0.00000E+00 0.00000E+00 0.00000E+00 0.00000E+00 0.00000E+00
  68.600 0.00000E+00 0.00000E+00 0.00000E+00 0.00000E+00 0.00000E+00
  68.700 0.00000E+00 0.00000E+00 0.00000E+00 0.00000E+00 0.00000E+00
  68.800 0.00000E+00 0.00000E+00 0.00000E+00 0.00000E+00 0.00000E+00
  68.900 0.00000E+00 0.00000E+00 0.00000E+00 0.00000E+00 0.00000E+00
  69.000 0.00000E+00 0.00000E+00 0.00000E+00 0.00000E+00 0.00000E+00
  69.100 0.00000E+00 0.00000E+00 0.00000E+00 0.00000E+00 0.00000E+00
  69.200 0.00000E+00 0.00000E+00 0.00000E+00 0.00000E+00 0.00000E+00
  69.300 0.00000E+00 0.00000E+00 0.00000E+00 0.00000E+00 0.00000E+00
  69.400 0.00000E+00 0.00000E+00 0.00000E+00 0.00000E+00 0.00000E+00
  69.500 0.00000E+00 0.00000E+00 0.00000E+00 0.00000E+00 0.00000E+00
  69.600 0.00000E+00 0.00000E+00 0.00000E+00 0.00000E+00 0.00000E+00
  69.700 0.00000E+00 0.00000E+00 0.00000E+00 0.00000E+00 0.00000E+00
  69.800 0.00000E+00 0.00000E+00 0.00000E+00 0.00000E+00 0.00000E+00
  69.900 0.00000E+00 0.00000E+00 0.00000E+00 0.00000E+00 0.00000E+00
  70.000 0.00000E+00 0.00000E+00 0.00000E+00 0.00000E+00 0.00000E+00
