# n + 209Bi: deuteron DDX spectrum
# E-incident =  63.000
# Angle      = 110.000
# # energies =227
# E-out    Total       Direct    Pre-equil.  Mult. preeq  Compound
  0.400 0.00000E+00 0.00000E+00 0.00000E+00 0.00000E+00 0.00000E+00
  0.500 0.00000E+00 0.00000E+00 0.00000E+00 0.00000E+00 0.00000E+00
  0.600 0.00000E+00 0.00000E+00 0.00000E+00 0.00000E+00 0.00000E+00
  0.700 1.40130E-44 0.00000E+00 1.40130E-44 0.00000E+00 0.00000E+00
  0.800 8.74845E-41 0.00000E+00 8.74845E-41 0.00000E+00 0.00000E+00
  0.900 1.21732E-37 0.00000E+00 1.21732E-37 0.00000E+00 0.00000E+00
  1.000 2.95953E-34 0.00000E+00 2.95953E-34 0.00000E+00 0.00000E+00
  1.100 5.67059E-32 0.00000E+00 5.67059E-32 0.00000E+00 0.00000E+00
  1.200 5.49845E-30 0.00000E+00 5.49845E-30 0.00000E+00 0.00000E+00
  1.300 3.08450E-28 0.00000E+00 3.08450E-28 0.00000E+00 0.00000E+00
  1.400 1.10547E-26 0.00000E+00 1.10547E-26 0.00000E+00 0.00000E+00
  1.500 2.73259E-25 0.00000E+00 2.73259E-25 0.00000E+00 0.00000E+00
  1.600 4.94008E-24 0.00000E+00 4.94008E-24 0.00000E+00 0.00000E+00
  1.700 6.84364E-23 0.00000E+00 6.84364E-23 0.00000E+00 0.00000E+00
  1.800 7.54223E-22 0.00000E+00 7.54223E-22 0.00000E+00 0.00000E+00
  1.900 6.81733E-21 0.00000E+00 6.81733E-21 0.00000E+00 0.00000E+00
  2.000 5.18098E-20 0.00000E+00 5.18098E-20 0.00000E+00 0.00000E+00
  2.200 1.92870E-18 0.00000E+00 1.92870E-18 0.00000E+00 0.00000E+00
  2.400 4.43200E-17 0.00000E+00 4.43200E-17 0.00000E+00 0.00000E+00
  2.600 6.91020E-16 0.00000E+00 6.91020E-16 0.00000E+00 0.00000E+00
  2.800 7.84777E-15 0.00000E+00 7.84777E-15 0.00000E+00 0.00000E+00
  3.000 2.10637E-11 0.00000E+00 6.85057E-14 0.00000E+00 2.09952E-11
  3.200 5.78143E-10 0.00000E+00 4.79531E-13 0.00000E+00 5.77664E-10
  3.400 3.46058E-09 0.00000E+00 2.78277E-12 0.00000E+00 3.45780E-09
  3.600 9.98896E-09 0.00000E+00 1.37517E-11 0.00000E+00 9.97521E-09
  3.800 3.11899E-08 0.00000E+00 5.91616E-11 0.00000E+00 3.11307E-08
  4.000 9.48111E-08 0.00000E+00 2.25598E-10 0.00000E+00 9.45855E-08
  4.500 7.94233E-07 0.00000E+00 4.14671E-09 0.00000E+00 7.90086E-07
  5.000 4.46942E-06 0.00000E+00 4.67426E-08 0.00000E+00 4.42268E-06
  5.500 1.47421E-05 0.00000E+00 3.63996E-07 0.00000E+00 1.43781E-05
  6.000 6.12965E-05 0.00000E+00 2.12636E-06 0.00000E+00 5.91701E-05
  6.500 1.70562E-04 0.00000E+00 9.87791E-06 0.00000E+00 1.60685E-04
  7.000 3.64383E-04 0.00000E+00 3.80384E-05 0.00000E+00 3.26345E-04
  7.500 8.69908E-04 0.00000E+00 1.24988E-04 0.00000E+00 7.44920E-04
  8.000 1.61247E-03 0.00000E+00 3.56896E-04 0.00000E+00 1.25557E-03
  8.500 2.71090E-03 0.00000E+00 8.93042E-04 0.00000E+00 1.81786E-03
  9.000 4.56389E-03 0.00000E+00 1.95836E-03 0.00000E+00 2.60552E-03
  9.500 6.80029E-03 0.00000E+00 3.75676E-03 0.00000E+00 3.04353E-03
 10.000 9.64870E-03 0.00000E+00 6.34490E-03 0.00000E+00 3.30380E-03
 10.500 1.28366E-02 0.00000E+00 9.61509E-03 0.00000E+00 3.22155E-03
 11.000 1.63267E-02 0.00000E+00 1.33919E-02 0.00000E+00 2.93484E-03
 11.500 1.99968E-02 0.00000E+00 1.75015E-02 0.00000E+00 2.49532E-03
 12.000 2.36669E-02 0.00000E+00 2.17726E-02 0.00000E+00 1.89430E-03
 12.500 2.75576E-02 0.00000E+00 2.60437E-02 0.00000E+00 1.51392E-03
 13.000 3.12473E-02 0.00000E+00 3.01668E-02 0.00000E+00 1.08057E-03
 13.500 3.47611E-02 0.00000E+00 3.40108E-02 0.00000E+00 7.50307E-04
 14.000 3.80275E-02 0.00000E+00 3.74861E-02 0.00000E+00 5.41367E-04
 14.500 4.09212E-02 0.00000E+00 4.05630E-02 0.00000E+00 3.58240E-04
 15.000 4.34965E-02 0.00000E+00 4.32550E-02 0.00000E+00 2.41477E-04
 15.500 4.57475E-02 0.00000E+00 4.55888E-02 0.00000E+00 1.58762E-04
 16.000 4.76936E-02 0.00000E+00 4.75894E-02 0.00000E+00 1.04154E-04
 16.500 4.93508E-02 0.00000E+00 4.92839E-02 0.00000E+00 6.69135E-05
 17.000 5.07444E-02 0.00000E+00 5.07009E-02 0.00000E+00 4.34261E-05
 17.500 5.18929E-02 0.00000E+00 5.18648E-02 0.00000E+00 2.80998E-05
 18.000 5.28093E-02 0.00000E+00 5.27923E-02 0.00000E+00 1.70012E-05
 18.500 5.35053E-02 0.00000E+00 5.34938E-02 0.00000E+00 1.14534E-05
 19.000 5.39844E-02 0.00000E+00 5.39775E-02 0.00000E+00 6.98153E-06
 19.500 5.42586E-02 0.00000E+00 5.42543E-02 0.00000E+00 4.24997E-06
 20.000 5.43434E-02 0.00000E+00 5.43407E-02 0.00000E+00 2.66334E-06
 21.000 5.40110E-02 0.00000E+00 5.40100E-02 0.00000E+00 1.06052E-06
 22.000 5.31171E-02 0.00000E+00 5.31167E-02 0.00000E+00 4.03649E-07
 23.000 5.17642E-02 0.00000E+00 5.17641E-02 0.00000E+00 1.54212E-07
 24.000 5.00211E-02 0.00000E+00 5.00210E-02 0.00000E+00 5.96210E-08
 25.000 4.79440E-02 0.00000E+00 4.79440E-02 0.00000E+00 2.19787E-08
 26.000 4.56062E-02 0.00000E+00 4.56062E-02 0.00000E+00 7.68840E-09
 27.000 4.31314E-02 0.00000E+00 4.31314E-02 0.00000E+00 2.66753E-09
 28.000 4.05814E-02 0.00000E+00 4.05814E-02 0.00000E+00 8.93016E-10
 29.000 3.79964E-02 0.00000E+00 3.79964E-02 0.00000E+00 1.51183E-10
 30.000 3.54067E-02 0.00000E+00 3.54067E-02 0.00000E+00 4.26747E-12
 31.000 3.28382E-02 0.00000E+00 3.28382E-02 0.00000E+00 0.00000E+00
 32.000 3.03143E-02 0.00000E+00 3.03143E-02 0.00000E+00 0.00000E+00
 33.000 2.78568E-02 0.00000E+00 2.78568E-02 0.00000E+00 0.00000E+00
 34.000 2.54856E-02 0.00000E+00 2.54856E-02 0.00000E+00 0.00000E+00
 35.000 2.32163E-02 0.00000E+00 2.32163E-02 0.00000E+00 0.00000E+00
 36.000 2.10593E-02 0.00000E+00 2.10593E-02 0.00000E+00 0.00000E+00
 37.000 1.90212E-02 0.00000E+00 1.90212E-02 0.00000E+00 0.00000E+00
 38.000 1.71060E-02 0.00000E+00 1.71060E-02 0.00000E+00 0.00000E+00
 39.000 1.53167E-02 0.00000E+00 1.53167E-02 0.00000E+00 0.00000E+00
 40.000 1.36553E-02 0.00000E+00 1.36553E-02 0.00000E+00 0.00000E+00
 42.000 1.07161E-02 0.00000E+00 1.07161E-02 0.00000E+00 0.00000E+00
 44.000 8.27130E-03 0.00000E+00 8.27130E-03 0.00000E+00 0.00000E+00
 46.000 6.28248E-03 0.00000E+00 6.28248E-03 0.00000E+00 0.00000E+00
 48.000 4.69881E-03 0.00000E+00 4.69881E-03 0.00000E+00 0.00000E+00
 50.000 3.46391E-03 0.00000E+00 3.46391E-03 0.00000E+00 0.00000E+00
 52.000 2.51952E-03 0.00000E+00 2.51952E-03 0.00000E+00 0.00000E+00
 54.000 1.80987E-03 0.00000E+00 1.80987E-03 0.00000E+00 0.00000E+00
 56.000 1.28495E-03 0.00000E+00 1.28495E-03 0.00000E+00 0.00000E+00
 56.100 1.23248E-03 7.42049E-06 1.22506E-03 0.00000E+00 0.00000E+00
 56.200 1.17879E-03 1.36231E-05 1.16516E-03 0.00000E+00 0.00000E+00
 56.300 1.12915E-03 2.38833E-05 1.10527E-03 0.00000E+00 0.00000E+00
 56.400 1.08540E-03 4.00189E-05 1.04538E-03 0.00000E+00 0.00000E+00
 56.500 1.04964E-03 6.41475E-05 9.85487E-04 0.00000E+00 0.00000E+00
 56.600 1.02407E-03 9.84722E-05 9.25597E-04 0.00000E+00 0.00000E+00
 56.700 1.01065E-03 1.44949E-04 8.65703E-04 0.00000E+00 0.00000E+00
 56.800 1.01069E-03 2.04878E-04 8.05812E-04 0.00000E+00 0.00000E+00
 56.900 1.02447E-03 2.78551E-04 7.45919E-04 0.00000E+00 0.00000E+00
 57.000 1.05103E-03 3.65005E-04 6.86028E-04 0.00000E+00 0.00000E+00
 57.100 1.08822E-03 4.62084E-04 6.26137E-04 0.00000E+00 0.00000E+00
 57.200 1.13302E-03 5.66781E-04 5.66244E-04 0.00000E+00 0.00000E+00
 57.300 1.18221E-03 6.75859E-04 5.06353E-04 0.00000E+00 0.00000E+00
 57.400 1.23311E-03 7.86651E-04 4.46460E-04 0.00000E+00 0.00000E+00
 57.500 1.28426E-03 8.97694E-04 3.86569E-04 0.00000E+00 0.00000E+00
 57.600 1.33572E-03 1.00904E-03 3.26678E-04 0.00000E+00 0.00000E+00
 57.700 1.38872E-03 1.12193E-03 2.66785E-04 0.00000E+00 0.00000E+00
 57.800 1.44459E-03 1.23770E-03 2.06894E-04 0.00000E+00 0.00000E+00
 57.900 1.50328E-03 1.35628E-03 1.47001E-04 0.00000E+00 0.00000E+00
 58.000 1.56160E-03 1.47449E-03 8.71101E-05 0.00000E+00 0.00000E+00
 58.100 1.66772E-03 1.58496E-03 8.27547E-05 0.00000E+00 0.00000E+00
 58.200 1.75470E-03 1.67630E-03 7.83991E-05 0.00000E+00 0.00000E+00
 58.300 1.80867E-03 1.73463E-03 7.40436E-05 0.00000E+00 0.00000E+00
 58.400 1.81630E-03 1.74662E-03 6.96880E-05 0.00000E+00 0.00000E+00
 58.500 1.76825E-03 1.70292E-03 6.53326E-05 0.00000E+00 0.00000E+00
 58.600 1.66207E-03 1.60109E-03 6.09771E-05 0.00000E+00 0.00000E+00
 58.700 1.50356E-03 1.44694E-03 5.66215E-05 0.00000E+00 0.00000E+00
 58.800 1.30602E-03 1.25375E-03 5.22661E-05 0.00000E+00 0.00000E+00
 58.900 1.08753E-03 1.03962E-03 4.79105E-05 0.00000E+00 0.00000E+00
 59.000 8.67394E-04 8.23839E-04 4.35551E-05 0.00000E+00 0.00000E+00
 59.100 6.62486E-04 6.23286E-04 3.91996E-05 0.00000E+00 0.00000E+00
 59.200 4.84781E-04 4.49937E-04 3.48440E-05 0.00000E+00 0.00000E+00
 59.300 3.40415E-04 3.09927E-04 3.04886E-05 0.00000E+00 0.00000E+00
 59.400 2.30142E-04 2.04009E-04 2.61330E-05 0.00000E+00 0.00000E+00
 59.500 1.50873E-04 1.29096E-04 2.17775E-05 0.00000E+00 0.00000E+00
 59.600 9.75009E-05 8.00788E-05 1.74221E-05 0.00000E+00 0.00000E+00
 59.700 6.46013E-05 5.15348E-05 1.30665E-05 0.00000E+00 0.00000E+00
 59.800 4.76382E-05 3.89272E-05 8.71104E-06 0.00000E+00 0.00000E+00
 59.900 4.35836E-05 3.92282E-05 4.35544E-06 0.00000E+00 0.00000E+00
 60.000 5.10353E-05 5.10353E-05 0.00000E+00 0.00000E+00 0.00000E+00
 60.100 7.42835E-05 7.42835E-05 0.00000E+00 0.00000E+00 0.00000E+00
 60.200 1.09681E-04 1.09681E-04 0.00000E+00 0.00000E+00 0.00000E+00
 60.300 1.57961E-04 1.57961E-04 0.00000E+00 0.00000E+00 0.00000E+00
 60.400 2.19083E-04 2.19083E-04 0.00000E+00 0.00000E+00 0.00000E+00
 60.500 2.91484E-04 2.91484E-04 0.00000E+00 0.00000E+00 0.00000E+00
 60.600 3.71601E-04 3.71601E-04 0.00000E+00 0.00000E+00 0.00000E+00
 60.700 4.53787E-04 4.53787E-04 0.00000E+00 0.00000E+00 0.00000E+00
 60.800 5.30753E-04 5.30753E-04 0.00000E+00 0.00000E+00 0.00000E+00
 60.900 5.94551E-04 5.94551E-04 0.00000E+00 0.00000E+00 0.00000E+00
 61.000 6.37877E-04 6.37877E-04 0.00000E+00 0.00000E+00 0.00000E+00
 61.100 6.55446E-04 6.55446E-04 0.00000E+00 0.00000E+00 0.00000E+00
 61.200 6.45041E-04 6.45041E-04 0.00000E+00 0.00000E+00 0.00000E+00
 61.300 6.07979E-04 6.07979E-04 0.00000E+00 0.00000E+00 0.00000E+00
 61.400 5.48832E-04 5.48832E-04 0.00000E+00 0.00000E+00 0.00000E+00
 61.500 4.74507E-04 4.74507E-04 0.00000E+00 0.00000E+00 0.00000E+00
 61.600 3.92914E-04 3.92914E-04 0.00000E+00 0.00000E+00 0.00000E+00
 61.700 3.11601E-04 3.11601E-04 0.00000E+00 0.00000E+00 0.00000E+00
 61.800 2.36677E-04 2.36677E-04 0.00000E+00 0.00000E+00 0.00000E+00
 61.900 1.72170E-04 1.72170E-04 0.00000E+00 0.00000E+00 0.00000E+00
 62.000 1.19955E-04 1.19955E-04 0.00000E+00 0.00000E+00 0.00000E+00
 62.100 8.00436E-05 8.00436E-05 0.00000E+00 0.00000E+00 0.00000E+00
 62.200 5.11540E-05 5.11540E-05 0.00000E+00 0.00000E+00 0.00000E+00
 62.300 3.13106E-05 3.13106E-05 0.00000E+00 0.00000E+00 0.00000E+00
 62.400 1.83546E-05 1.83546E-05 0.00000E+00 0.00000E+00 0.00000E+00
 62.500 1.03053E-05 1.03053E-05 0.00000E+00 0.00000E+00 0.00000E+00
 62.600 5.54145E-06 5.54145E-06 0.00000E+00 0.00000E+00 0.00000E+00
 62.700 2.85383E-06 2.85383E-06 0.00000E+00 0.00000E+00 0.00000E+00
 62.800 1.40765E-06 1.40765E-06 0.00000E+00 0.00000E+00 0.00000E+00
 62.900 6.64968E-07 6.64968E-07 0.00000E+00 0.00000E+00 0.00000E+00
 63.000 3.00863E-07 3.00863E-07 0.00000E+00 0.00000E+00 0.00000E+00
 63.100 1.30373E-07 1.30373E-07 0.00000E+00 0.00000E+00 0.00000E+00
 63.200 5.41060E-08 5.41060E-08 0.00000E+00 0.00000E+00 0.00000E+00
 63.300 2.15064E-08 2.15064E-08 0.00000E+00 0.00000E+00 0.00000E+00
 63.400 8.18699E-09 8.18699E-09 0.00000E+00 0.00000E+00 0.00000E+00
 63.500 2.98502E-09 2.98502E-09 0.00000E+00 0.00000E+00 0.00000E+00
 63.600 1.04237E-09 1.04237E-09 0.00000E+00 0.00000E+00 0.00000E+00
 63.700 3.48603E-10 3.48603E-10 0.00000E+00 0.00000E+00 0.00000E+00
 63.800 1.11663E-10 1.11663E-10 0.00000E+00 0.00000E+00 0.00000E+00
 63.900 3.42544E-11 3.42544E-11 0.00000E+00 0.00000E+00 0.00000E+00
 64.000 1.00646E-11 1.00646E-11 0.00000E+00 0.00000E+00 0.00000E+00
 64.100 2.83220E-12 2.83220E-12 0.00000E+00 0.00000E+00 0.00000E+00
 64.200 7.63319E-13 7.63319E-13 0.00000E+00 0.00000E+00 0.00000E+00
 64.300 1.97012E-13 1.97012E-13 0.00000E+00 0.00000E+00 0.00000E+00
 64.400 4.87052E-14 4.87052E-14 0.00000E+00 0.00000E+00 0.00000E+00
 64.500 1.15321E-14 1.15321E-14 0.00000E+00 0.00000E+00 0.00000E+00
 64.600 2.61514E-15 2.61514E-15 0.00000E+00 0.00000E+00 0.00000E+00
 64.700 5.67978E-16 5.67978E-16 0.00000E+00 0.00000E+00 0.00000E+00
 64.800 1.18132E-16 1.18132E-16 0.00000E+00 0.00000E+00 0.00000E+00
 64.900 2.35344E-17 2.35344E-17 0.00000E+00 0.00000E+00 0.00000E+00
 65.000 4.49048E-18 4.49048E-18 0.00000E+00 0.00000E+00 0.00000E+00
 65.100 8.20603E-19 8.20603E-19 0.00000E+00 0.00000E+00 0.00000E+00
 65.200 1.43623E-19 1.43623E-19 0.00000E+00 0.00000E+00 0.00000E+00
 65.300 2.40717E-20 2.40717E-20 0.00000E+00 0.00000E+00 0.00000E+00
 65.400 3.86456E-21 3.86456E-21 0.00000E+00 0.00000E+00 0.00000E+00
 65.500 5.94216E-22 5.94216E-22 0.00000E+00 0.00000E+00 0.00000E+00
 65.600 8.75063E-23 8.75063E-23 0.00000E+00 0.00000E+00 0.00000E+00
 65.700 1.23420E-23 1.23420E-23 0.00000E+00 0.00000E+00 0.00000E+00
 65.800 1.66693E-24 1.66693E-24 0.00000E+00 0.00000E+00 0.00000E+00
 65.900 2.15658E-25 2.15658E-25 0.00000E+00 0.00000E+00 0.00000E+00
 66.000 2.67217E-26 2.67217E-26 0.00000E+00 0.00000E+00 0.00000E+00
 66.100 3.17113E-27 3.17113E-27 0.00000E+00 0.00000E+00 0.00000E+00
 66.200 3.60426E-28 3.60426E-28 0.00000E+00 0.00000E+00 0.00000E+00
 66.300 3.92279E-29 3.92279E-29 0.00000E+00 0.00000E+00 0.00000E+00
 66.400 4.08976E-30 4.08976E-30 0.00000E+00 0.00000E+00 0.00000E+00
 66.500 4.08368E-31 4.08368E-31 0.00000E+00 0.00000E+00 0.00000E+00
 66.600 3.90532E-32 3.90532E-32 0.00000E+00 0.00000E+00 0.00000E+00
 66.700 3.57696E-33 3.57696E-33 0.00000E+00 0.00000E+00 0.00000E+00
 66.800 3.13719E-34 3.13719E-34 0.00000E+00 0.00000E+00 0.00000E+00
 66.900 2.63571E-35 2.63571E-35 0.00000E+00 0.00000E+00 0.00000E+00
 67.000 2.12084E-36 2.12084E-36 0.00000E+00 0.00000E+00 0.00000E+00
 67.100 1.63444E-37 1.63444E-37 0.00000E+00 0.00000E+00 0.00000E+00
 67.200 1.20637E-38 1.20637E-38 0.00000E+00 0.00000E+00 0.00000E+00
 67.300 8.52619E-40 8.52619E-40 0.00000E+00 0.00000E+00 0.00000E+00
 67.400 5.77251E-41 5.77251E-41 0.00000E+00 0.00000E+00 0.00000E+00
 67.500 3.74287E-42 3.74287E-42 0.00000E+00 0.00000E+00 0.00000E+00
 67.600 2.32616E-43 2.32616E-43 0.00000E+00 0.00000E+00 0.00000E+00
 67.700 1.40130E-44 1.40130E-44 0.00000E+00 0.00000E+00 0.00000E+00
 67.800 1.40130E-45 1.40130E-45 0.00000E+00 0.00000E+00 0.00000E+00
 67.900 0.00000E+00 0.00000E+00 0.00000E+00 0.00000E+00 0.00000E+00
 68.000 0.00000E+00 0.00000E+00 0.00000E+00 0.00000E+00 0.00000E+00
 68.100 0.00000E+00 0.00000E+00 0.00000E+00 0.00000E+00 0.00000E+00
 68.200 0.00000E+00 0.00000E+00 0.00000E+00 0.00000E+00 0.00000E+00
 68.300 0.00000E+00 0.00000E+00 0.00000E+00 0.00000E+00 0.00000E+00
 68.400 0.00000E+00 0.00000E+00 0.00000E+00 0.00000E+00 0.00000E+00
 68.500 0.00000E+00 0.00000E+00 0.00000E+00 0.00000E+00 0.00000E+00
 68.600 0.00000E+00 0.00000E+00 0.00000E+00 0.00000E+00 0.00000E+00
 68.700 0.00000E+00 0.00000E+00 0.00000E+00 0.00000E+00 0.00000E+00
 68.800 0.00000E+00 0.00000E+00 0.00000E+00 0.00000E+00 0.00000E+00
 68.900 0.00000E+00 0.00000E+00 0.00000E+00 0.00000E+00 0.00000E+00
 69.000 0.00000E+00 0.00000E+00 0.00000E+00 0.00000E+00 0.00000E+00
 69.100 0.00000E+00 0.00000E+00 0.00000E+00 0.00000E+00 0.00000E+00
 69.200 0.00000E+00 0.00000E+00 0.00000E+00 0.00000E+00 0.00000E+00
 69.300 0.00000E+00 0.00000E+00 0.00000E+00 0.00000E+00 0.00000E+00
 69.400 0.00000E+00 0.00000E+00 0.00000E+00 0.00000E+00 0.00000E+00
 69.500 0.00000E+00 0.00000E+00 0.00000E+00 0.00000E+00 0.00000E+00
 69.600 0.00000E+00 0.00000E+00 0.00000E+00 0.00000E+00 0.00000E+00
 69.700 0.00000E+00 0.00000E+00 0.00000E+00 0.00000E+00 0.00000E+00
 69.800 0.00000E+00 0.00000E+00 0.00000E+00 0.00000E+00 0.00000E+00
 69.900 0.00000E+00 0.00000E+00 0.00000E+00 0.00000E+00 0.00000E+00
 70.000 0.00000E+00 0.00000E+00 0.00000E+00 0.00000E+00 0.00000E+00
