# n + 209Bi: deuteron DDX spectrum
# E-incident =  63.000
# Angle      = 110.000
# # energies =227
# E-out    Total       Direct    Pre-equil.  Mult. preeq  Compound
  0.400 6.51418E-14 0.00000E+00 0.00000E+00 0.00000E+00 6.51418E-14
  0.500 8.14273E-14 0.00000E+00 0.00000E+00 0.00000E+00 8.14273E-14
  0.600 9.84017E-14 0.00000E+00 0.00000E+00 0.00000E+00 9.84017E-14
  0.700 3.78346E-12 0.00000E+00 0.00000E+00 0.00000E+00 3.78346E-12
  0.800 1.21460E-11 0.00000E+00 0.00000E+00 0.00000E+00 1.21460E-11
  0.900 3.06117E-11 0.00000E+00 1.19893E-37 0.00000E+00 3.06117E-11
  1.000 3.10726E-11 0.00000E+00 2.95927E-34 0.00000E+00 3.10726E-11
  1.100 3.23824E-11 0.00000E+00 5.67009E-32 0.00000E+00 3.23824E-11
  1.200 3.48058E-11 0.00000E+00 5.49796E-30 0.00000E+00 3.48058E-11
  1.300 3.97382E-11 0.00000E+00 3.08423E-28 0.00000E+00 3.97382E-11
  1.400 4.33337E-11 0.00000E+00 1.10537E-26 0.00000E+00 4.33337E-11
  1.500 4.40078E-11 0.00000E+00 2.73235E-25 0.00000E+00 4.40078E-11
  1.600 5.29413E-11 0.00000E+00 4.93965E-24 0.00000E+00 5.29413E-11
  1.700 1.98299E-10 0.00000E+00 6.84305E-23 0.00000E+00 1.98299E-10
  1.800 1.16095E-07 0.00000E+00 7.54158E-22 0.00000E+00 1.16095E-07
  1.900 2.20524E-07 0.00000E+00 6.81676E-21 0.00000E+00 2.20524E-07
  2.000 2.25378E-07 0.00000E+00 5.18053E-20 0.00000E+00 2.25378E-07
  2.200 2.33685E-07 0.00000E+00 1.92853E-18 0.00000E+00 2.33685E-07
  2.400 2.42463E-07 0.00000E+00 4.43162E-17 0.00000E+00 2.42463E-07
  2.600 2.54971E-07 0.00000E+00 6.90961E-16 0.00000E+00 2.54971E-07
  2.800 5.22397E-07 0.00000E+00 7.84711E-15 0.00000E+00 5.22397E-07
  3.000 3.31702E-06 0.00000E+00 6.85067E-14 0.00000E+00 3.31702E-06
  3.200 4.70708E-06 0.00000E+00 4.79491E-13 0.00000E+00 4.70708E-06
  3.400 4.92486E-06 0.00000E+00 2.78254E-12 0.00000E+00 4.92486E-06
  3.600 5.86198E-06 0.00000E+00 1.37506E-11 0.00000E+00 5.86197E-06
  3.800 6.33347E-06 0.00000E+00 5.91567E-11 0.00000E+00 6.33341E-06
  4.000 1.12349E-05 0.00000E+00 2.25580E-10 0.00000E+00 1.12347E-05
  4.500 1.91178E-05 0.00000E+00 4.14637E-09 0.00000E+00 1.91137E-05
  5.000 3.86565E-05 0.00000E+00 4.67389E-08 0.00000E+00 3.86097E-05
  5.500 1.21455E-04 0.00000E+00 3.63968E-07 0.00000E+00 1.21091E-04
  6.000 2.18218E-04 0.00000E+00 2.12620E-06 0.00000E+00 2.16091E-04
  6.500 3.19350E-04 0.00000E+00 9.87717E-06 0.00000E+00 3.09473E-04
  7.000 4.76076E-04 0.00000E+00 3.80356E-05 0.00000E+00 4.38040E-04
  7.500 6.89189E-04 0.00000E+00 1.24979E-04 0.00000E+00 5.64210E-04
  8.000 1.09192E-03 0.00000E+00 3.56870E-04 0.00000E+00 7.35053E-04
  8.500 1.80015E-03 0.00000E+00 8.92980E-04 0.00000E+00 9.07171E-04
  9.000 3.05224E-03 0.00000E+00 1.95823E-03 0.00000E+00 1.09401E-03
  9.500 4.94658E-03 0.00000E+00 3.75650E-03 0.00000E+00 1.19007E-03
 10.000 7.56358E-03 0.00000E+00 6.34448E-03 0.00000E+00 1.21910E-03
 10.500 1.08328E-02 0.00000E+00 9.61447E-03 0.00000E+00 1.21833E-03
 11.000 1.45708E-02 0.00000E+00 1.33910E-02 0.00000E+00 1.17972E-03
 11.500 1.86091E-02 0.00000E+00 1.75004E-02 0.00000E+00 1.10876E-03
 12.000 2.27621E-02 0.00000E+00 2.17713E-02 0.00000E+00 9.90814E-04
 12.500 2.68052E-02 0.00000E+00 2.60421E-02 0.00000E+00 7.63067E-04
 13.000 3.07774E-02 0.00000E+00 3.01650E-02 0.00000E+00 6.12365E-04
 13.500 3.45266E-02 0.00000E+00 3.40088E-02 0.00000E+00 5.17787E-04
 14.000 3.79026E-02 0.00000E+00 3.74840E-02 0.00000E+00 4.18606E-04
 14.500 4.08146E-02 0.00000E+00 4.05608E-02 0.00000E+00 2.53805E-04
 15.000 4.33953E-02 0.00000E+00 4.32527E-02 0.00000E+00 1.42566E-04
 15.500 4.56973E-02 0.00000E+00 4.55864E-02 0.00000E+00 1.10942E-04
 16.000 4.76776E-02 0.00000E+00 4.75870E-02 0.00000E+00 9.06185E-05
 16.500 4.93355E-02 0.00000E+00 4.92815E-02 0.00000E+00 5.40634E-05
 17.000 5.07212E-02 0.00000E+00 5.06984E-02 0.00000E+00 2.27095E-05
 17.500 5.18772E-02 0.00000E+00 5.18623E-02 0.00000E+00 1.48822E-05
 18.000 5.28012E-02 0.00000E+00 5.27898E-02 0.00000E+00 1.13514E-05
 18.500 5.34995E-02 0.00000E+00 5.34914E-02 0.00000E+00 8.16164E-06
 19.000 5.39785E-02 0.00000E+00 5.39750E-02 0.00000E+00 3.49278E-06
 19.500 5.42539E-02 0.00000E+00 5.42520E-02 0.00000E+00 1.93796E-06
 20.000 5.43396E-02 0.00000E+00 5.43383E-02 0.00000E+00 1.25690E-06
 21.000 5.40083E-02 0.00000E+00 5.40078E-02 0.00000E+00 5.30468E-07
 22.000 5.31148E-02 0.00000E+00 5.31146E-02 0.00000E+00 1.70167E-07
 23.000 5.17622E-02 0.00000E+00 5.17621E-02 0.00000E+00 6.70716E-08
 24.000 5.00192E-02 0.00000E+00 5.00191E-02 0.00000E+00 2.54258E-08
 25.000 4.79423E-02 0.00000E+00 4.79423E-02 0.00000E+00 8.63279E-09
 26.000 4.56046E-02 0.00000E+00 4.56046E-02 0.00000E+00 3.69839E-09
 27.000 4.31299E-02 0.00000E+00 4.31299E-02 0.00000E+00 9.62333E-10
 28.000 4.05801E-02 0.00000E+00 4.05801E-02 0.00000E+00 4.97295E-10
 29.000 3.79952E-02 0.00000E+00 3.79952E-02 0.00000E+00 6.23284E-11
 30.000 3.54056E-02 0.00000E+00 3.54056E-02 0.00000E+00 2.13802E-11
 31.000 3.28373E-02 0.00000E+00 3.28373E-02 0.00000E+00 1.10202E-12
 32.000 3.03134E-02 0.00000E+00 3.03134E-02 0.00000E+00 0.00000E+00
 33.000 2.78560E-02 0.00000E+00 2.78560E-02 0.00000E+00 0.00000E+00
 34.000 2.54849E-02 0.00000E+00 2.54849E-02 0.00000E+00 0.00000E+00
 35.000 2.32157E-02 0.00000E+00 2.32157E-02 0.00000E+00 0.00000E+00
 36.000 2.10587E-02 0.00000E+00 2.10587E-02 0.00000E+00 0.00000E+00
 37.000 1.90207E-02 0.00000E+00 1.90207E-02 0.00000E+00 0.00000E+00
 38.000 1.71055E-02 0.00000E+00 1.71055E-02 0.00000E+00 0.00000E+00
 39.000 1.53163E-02 0.00000E+00 1.53163E-02 0.00000E+00 0.00000E+00
 40.000 1.36549E-02 0.00000E+00 1.36549E-02 0.00000E+00 0.00000E+00
 42.000 1.07158E-02 0.00000E+00 1.07158E-02 0.00000E+00 0.00000E+00
 44.000 8.27109E-03 0.00000E+00 8.27109E-03 0.00000E+00 0.00000E+00
 46.000 6.28232E-03 0.00000E+00 6.28232E-03 0.00000E+00 0.00000E+00
 48.000 4.69869E-03 0.00000E+00 4.69869E-03 0.00000E+00 0.00000E+00
 50.000 3.46382E-03 0.00000E+00 3.46382E-03 0.00000E+00 0.00000E+00
 52.000 2.51945E-03 0.00000E+00 2.51945E-03 0.00000E+00 0.00000E+00
 54.000 1.80982E-03 0.00000E+00 1.80982E-03 0.00000E+00 0.00000E+00
 56.000 1.28491E-03 0.00000E+00 1.28491E-03 0.00000E+00 0.00000E+00
 56.100 1.23245E-03 7.43237E-06 1.22502E-03 0.00000E+00 0.00000E+00
 56.200 1.17876E-03 1.36431E-05 1.16512E-03 0.00000E+00 0.00000E+00
 56.300 1.12914E-03 2.39155E-05 1.10523E-03 0.00000E+00 0.00000E+00
 56.400 1.08540E-03 4.00679E-05 1.04533E-03 0.00000E+00 0.00000E+00
 56.500 1.04965E-03 6.42183E-05 9.85434E-04 0.00000E+00 0.00000E+00
 56.600 1.02411E-03 9.85695E-05 9.25539E-04 0.00000E+00 0.00000E+00
 56.700 1.01072E-03 1.45076E-04 8.65642E-04 0.00000E+00 0.00000E+00
 56.800 1.01078E-03 2.05036E-04 8.05748E-04 0.00000E+00 0.00000E+00
 56.900 1.02459E-03 2.78737E-04 7.45851E-04 0.00000E+00 0.00000E+00
 57.000 1.05117E-03 3.65216E-04 6.85956E-04 0.00000E+00 0.00000E+00
 57.100 1.08837E-03 4.62310E-04 6.26061E-04 0.00000E+00 0.00000E+00
 57.200 1.13318E-03 5.67013E-04 5.66164E-04 0.00000E+00 0.00000E+00
 57.300 1.18236E-03 6.76088E-04 5.06269E-04 0.00000E+00 0.00000E+00
 57.400 1.23324E-03 7.86868E-04 4.46372E-04 0.00000E+00 0.00000E+00
 57.500 1.28437E-03 8.97893E-04 3.86478E-04 0.00000E+00 0.00000E+00
 57.600 1.33581E-03 1.00922E-03 3.26583E-04 0.00000E+00 0.00000E+00
 57.700 1.38877E-03 1.12209E-03 2.66686E-04 0.00000E+00 0.00000E+00
 57.800 1.44463E-03 1.23784E-03 2.06791E-04 0.00000E+00 0.00000E+00
 57.900 1.50329E-03 1.35640E-03 1.46894E-04 0.00000E+00 0.00000E+00
 58.000 1.56159E-03 1.47459E-03 8.69994E-05 0.00000E+00 0.00000E+00
 58.100 1.66770E-03 1.58505E-03 8.26495E-05 0.00000E+00 0.00000E+00
 58.200 1.75466E-03 1.67636E-03 7.82994E-05 0.00000E+00 0.00000E+00
 58.300 1.80862E-03 1.73467E-03 7.39495E-05 0.00000E+00 0.00000E+00
 58.400 1.81623E-03 1.74663E-03 6.95995E-05 0.00000E+00 0.00000E+00
 58.500 1.76816E-03 1.70291E-03 6.52496E-05 0.00000E+00 0.00000E+00
 58.600 1.66196E-03 1.60106E-03 6.08997E-05 0.00000E+00 0.00000E+00
 58.700 1.50344E-03 1.44689E-03 5.65496E-05 0.00000E+00 0.00000E+00
 58.800 1.30588E-03 1.25368E-03 5.21997E-05 0.00000E+00 0.00000E+00
 58.900 1.08739E-03 1.03954E-03 4.78496E-05 0.00000E+00 0.00000E+00
 59.000 8.67265E-04 8.23765E-04 4.34997E-05 0.00000E+00 0.00000E+00
 59.100 6.62369E-04 6.23219E-04 3.91498E-05 0.00000E+00 0.00000E+00
 59.200 4.84680E-04 4.49880E-04 3.47997E-05 0.00000E+00 0.00000E+00
 59.300 3.40332E-04 3.09882E-04 3.04498E-05 0.00000E+00 0.00000E+00
 59.400 2.30076E-04 2.03976E-04 2.60998E-05 0.00000E+00 0.00000E+00
 59.500 1.50824E-04 1.29074E-04 2.17499E-05 0.00000E+00 0.00000E+00
 59.600 9.74654E-05 8.00655E-05 1.74000E-05 0.00000E+00 0.00000E+00
 59.700 6.45786E-05 5.15288E-05 1.30499E-05 0.00000E+00 0.00000E+00
 59.800 4.76275E-05 3.89275E-05 8.69997E-06 0.00000E+00 0.00000E+00
 59.900 4.35844E-05 3.92345E-05 4.34990E-06 0.00000E+00 0.00000E+00
 60.000 5.10479E-05 5.10479E-05 0.00000E+00 0.00000E+00 0.00000E+00
 60.100 7.43033E-05 7.43033E-05 0.00000E+00 0.00000E+00 0.00000E+00
 60.200 1.09709E-04 1.09709E-04 0.00000E+00 0.00000E+00 0.00000E+00
 60.300 1.57997E-04 1.57997E-04 0.00000E+00 0.00000E+00 0.00000E+00
 60.400 2.19127E-04 2.19127E-04 0.00000E+00 0.00000E+00 0.00000E+00
 60.500 2.91535E-04 2.91535E-04 0.00000E+00 0.00000E+00 0.00000E+00
 60.600 3.71655E-04 3.71655E-04 0.00000E+00 0.00000E+00 0.00000E+00
 60.700 4.53840E-04 4.53840E-04 0.00000E+00 0.00000E+00 0.00000E+00
 60.800 5.30798E-04 5.30798E-04 0.00000E+00 0.00000E+00 0.00000E+00
 60.900 5.94585E-04 5.94585E-04 0.00000E+00 0.00000E+00 0.00000E+00
 61.000 6.37895E-04 6.37895E-04 0.00000E+00 0.00000E+00 0.00000E+00
 61.100 6.55444E-04 6.55444E-04 0.00000E+00 0.00000E+00 0.00000E+00
 61.200 6.45020E-04 6.45020E-04 0.00000E+00 0.00000E+00 0.00000E+00
 61.300 6.07942E-04 6.07942E-04 0.00000E+00 0.00000E+00 0.00000E+00
 61.400 5.48782E-04 5.48782E-04 0.00000E+00 0.00000E+00 0.00000E+00
 61.500 4.74449E-04 4.74449E-04 0.00000E+00 0.00000E+00 0.00000E+00
 61.600 3.92854E-04 3.92854E-04 0.00000E+00 0.00000E+00 0.00000E+00
 61.700 3.11545E-04 3.11545E-04 0.00000E+00 0.00000E+00 0.00000E+00
 61.800 2.36627E-04 2.36627E-04 0.00000E+00 0.00000E+00 0.00000E+00
 61.900 1.72128E-04 1.72128E-04 0.00000E+00 0.00000E+00 0.00000E+00
 62.000 1.19922E-04 1.19922E-04 0.00000E+00 0.00000E+00 0.00000E+00
 62.100 8.00191E-05 8.00191E-05 0.00000E+00 0.00000E+00 0.00000E+00
 62.200 5.11368E-05 5.11368E-05 0.00000E+00 0.00000E+00 0.00000E+00
 62.300 3.12991E-05 3.12991E-05 0.00000E+00 0.00000E+00 0.00000E+00
 62.400 1.83473E-05 1.83473E-05 0.00000E+00 0.00000E+00 0.00000E+00
 62.500 1.03008E-05 1.03008E-05 0.00000E+00 0.00000E+00 0.00000E+00
 62.600 5.53889E-06 5.53889E-06 0.00000E+00 0.00000E+00 0.00000E+00
 62.700 2.85242E-06 2.85242E-06 0.00000E+00 0.00000E+00 0.00000E+00
 62.800 1.40691E-06 1.40691E-06 0.00000E+00 0.00000E+00 0.00000E+00
 62.900 6.64596E-07 6.64596E-07 0.00000E+00 0.00000E+00 0.00000E+00
 63.000 3.00685E-07 3.00685E-07 0.00000E+00 0.00000E+00 0.00000E+00
 63.100 1.30292E-07 1.30292E-07 0.00000E+00 0.00000E+00 0.00000E+00
 63.200 5.40705E-08 5.40705E-08 0.00000E+00 0.00000E+00 0.00000E+00
 63.300 2.14916E-08 2.14916E-08 0.00000E+00 0.00000E+00 0.00000E+00
 63.400 8.18108E-09 8.18108E-09 0.00000E+00 0.00000E+00 0.00000E+00
 63.500 2.98277E-09 2.98277E-09 0.00000E+00 0.00000E+00 0.00000E+00
 63.600 1.04155E-09 1.04155E-09 0.00000E+00 0.00000E+00 0.00000E+00
 63.700 3.48316E-10 3.48316E-10 0.00000E+00 0.00000E+00 0.00000E+00
 63.800 1.11567E-10 1.11567E-10 0.00000E+00 0.00000E+00 0.00000E+00
 63.900 3.42239E-11 3.42239E-11 0.00000E+00 0.00000E+00 0.00000E+00
 64.000 1.00553E-11 1.00553E-11 0.00000E+00 0.00000E+00 0.00000E+00
 64.100 2.82949E-12 2.82949E-12 0.00000E+00 0.00000E+00 0.00000E+00
 64.200 7.62562E-13 7.62562E-13 0.00000E+00 0.00000E+00 0.00000E+00
 64.300 1.96810E-13 1.96810E-13 0.00000E+00 0.00000E+00 0.00000E+00
 64.400 4.86537E-14 4.86537E-14 0.00000E+00 0.00000E+00 0.00000E+00
 64.500 1.15195E-14 1.15195E-14 0.00000E+00 0.00000E+00 0.00000E+00
 64.600 2.61219E-15 2.61219E-15 0.00000E+00 0.00000E+00 0.00000E+00
 64.700 5.67317E-16 5.67317E-16 0.00000E+00 0.00000E+00 0.00000E+00
 64.800 1.17990E-16 1.17990E-16 0.00000E+00 0.00000E+00 0.00000E+00
 64.900 2.35054E-17 2.35054E-17 0.00000E+00 0.00000E+00 0.00000E+00
 65.000 4.48479E-18 4.48479E-18 0.00000E+00 0.00000E+00 0.00000E+00
 65.100 8.19533E-19 8.19533E-19 0.00000E+00 0.00000E+00 0.00000E+00
 65.200 1.43431E-19 1.43431E-19 0.00000E+00 0.00000E+00 0.00000E+00
 65.300 2.40387E-20 2.40387E-20 0.00000E+00 0.00000E+00 0.00000E+00
 65.400 3.85911E-21 3.85911E-21 0.00000E+00 0.00000E+00 0.00000E+00
 65.500 5.93355E-22 5.93355E-22 0.00000E+00 0.00000E+00 0.00000E+00
 65.600 8.73766E-23 8.73766E-23 0.00000E+00 0.00000E+00 0.00000E+00
 65.700 1.23233E-23 1.23233E-23 0.00000E+00 0.00000E+00 0.00000E+00
 65.800 1.66434E-24 1.66434E-24 0.00000E+00 0.00000E+00 0.00000E+00
 65.900 2.15315E-25 2.15315E-25 0.00000E+00 0.00000E+00 0.00000E+00
 66.000 2.66781E-26 2.66781E-26 0.00000E+00 0.00000E+00 0.00000E+00
 66.100 3.16584E-27 3.16584E-27 0.00000E+00 0.00000E+00 0.00000E+00
 66.200 3.59813E-28 3.59813E-28 0.00000E+00 0.00000E+00 0.00000E+00
 66.300 3.91596E-29 3.91596E-29 0.00000E+00 0.00000E+00 0.00000E+00
 66.400 4.08248E-30 4.08248E-30 0.00000E+00 0.00000E+00 0.00000E+00
 66.500 4.07627E-31 4.07627E-31 0.00000E+00 0.00000E+00 0.00000E+00
 66.600 3.89810E-32 3.89810E-32 0.00000E+00 0.00000E+00 0.00000E+00
 66.700 3.57021E-33 3.57021E-33 0.00000E+00 0.00000E+00 0.00000E+00
 66.800 3.13116E-34 3.13116E-34 0.00000E+00 0.00000E+00 0.00000E+00
 66.900 2.63054E-35 2.63054E-35 0.00000E+00 0.00000E+00 0.00000E+00
 67.000 2.11659E-36 2.11659E-36 0.00000E+00 0.00000E+00 0.00000E+00
 67.100 1.63111E-37 1.63111E-37 0.00000E+00 0.00000E+00 0.00000E+00
 67.200 1.20386E-38 1.20386E-38 0.00000E+00 0.00000E+00 0.00000E+00
 67.300 0.00000E+00 0.00000E+00 0.00000E+00 0.00000E+00 0.00000E+00
 67.400 0.00000E+00 0.00000E+00 0.00000E+00 0.00000E+00 0.00000E+00
 67.500 0.00000E+00 0.00000E+00 0.00000E+00 0.00000E+00 0.00000E+00
 67.600 0.00000E+00 0.00000E+00 0.00000E+00 0.00000E+00 0.00000E+00
 67.700 0.00000E+00 0.00000E+00 0.00000E+00 0.00000E+00 0.00000E+00
 67.800 0.00000E+00 0.00000E+00 0.00000E+00 0.00000E+00 0.00000E+00
 67.900 0.00000E+00 0.00000E+00 0.00000E+00 0.00000E+00 0.00000E+00
 68.000 0.00000E+00 0.00000E+00 0.00000E+00 0.00000E+00 0.00000E+00
 68.100 0.00000E+00 0.00000E+00 0.00000E+00 0.00000E+00 0.00000E+00
 68.200 0.00000E+00 0.00000E+00 0.00000E+00 0.00000E+00 0.00000E+00
 68.300 0.00000E+00 0.00000E+00 0.00000E+00 0.00000E+00 0.00000E+00
 68.400 0.00000E+00 0.00000E+00 0.00000E+00 0.00000E+00 0.00000E+00
 68.500 0.00000E+00 0.00000E+00 0.00000E+00 0.00000E+00 0.00000E+00
 68.600 0.00000E+00 0.00000E+00 0.00000E+00 0.00000E+00 0.00000E+00
 68.700 0.00000E+00 0.00000E+00 0.00000E+00 0.00000E+00 0.00000E+00
 68.800 0.00000E+00 0.00000E+00 0.00000E+00 0.00000E+00 0.00000E+00
 68.900 0.00000E+00 0.00000E+00 0.00000E+00 0.00000E+00 0.00000E+00
 69.000 0.00000E+00 0.00000E+00 0.00000E+00 0.00000E+00 0.00000E+00
 69.100 0.00000E+00 0.00000E+00 0.00000E+00 0.00000E+00 0.00000E+00
 69.200 0.00000E+00 0.00000E+00 0.00000E+00 0.00000E+00 0.00000E+00
 69.300 0.00000E+00 0.00000E+00 0.00000E+00 0.00000E+00 0.00000E+00
 69.400 0.00000E+00 0.00000E+00 0.00000E+00 0.00000E+00 0.00000E+00
 69.500 0.00000E+00 0.00000E+00 0.00000E+00 0.00000E+00 0.00000E+00
 69.600 0.00000E+00 0.00000E+00 0.00000E+00 0.00000E+00 0.00000E+00
 69.700 0.00000E+00 0.00000E+00 0.00000E+00 0.00000E+00 0.00000E+00
 69.800 0.00000E+00 0.00000E+00 0.00000E+00 0.00000E+00 0.00000E+00
 69.900 0.00000E+00 0.00000E+00 0.00000E+00 0.00000E+00 0.00000E+00
 70.000 0.00000E+00 0.00000E+00 0.00000E+00 0.00000E+00 0.00000E+00
