# n + 209Bi: helium-3 DDX spectrum
# E-incident =  63.000
# 
# # energies =223
# E-out    Total       Direct    Pre-equil.  Mult. preeq  Compound
  0.700 0.00000E+00 0.00000E+00 0.00000E+00 0.00000E+00 0.00000E+00
  0.800 0.00000E+00 0.00000E+00 0.00000E+00 0.00000E+00 0.00000E+00
  0.900 0.00000E+00 0.00000E+00 0.00000E+00 0.00000E+00 0.00000E+00
  1.000 0.00000E+00 0.00000E+00 0.00000E+00 0.00000E+00 0.00000E+00
  1.100 0.00000E+00 0.00000E+00 0.00000E+00 0.00000E+00 0.00000E+00
  1.200 0.00000E+00 0.00000E+00 0.00000E+00 0.00000E+00 0.00000E+00
  1.300 0.00000E+00 0.00000E+00 0.00000E+00 0.00000E+00 0.00000E+00
  1.400 0.00000E+00 0.00000E+00 0.00000E+00 0.00000E+00 0.00000E+00
  1.500 0.00000E+00 0.00000E+00 0.00000E+00 0.00000E+00 0.00000E+00
  1.600 0.00000E+00 0.00000E+00 0.00000E+00 0.00000E+00 0.00000E+00
  1.700 0.00000E+00 0.00000E+00 0.00000E+00 0.00000E+00 0.00000E+00
  1.800 0.00000E+00 0.00000E+00 0.00000E+00 0.00000E+00 0.00000E+00
  1.900 0.00000E+00 0.00000E+00 0.00000E+00 0.00000E+00 0.00000E+00
  2.000 0.00000E+00 0.00000E+00 0.00000E+00 0.00000E+00 0.00000E+00
  2.200 0.00000E+00 0.00000E+00 0.00000E+00 0.00000E+00 0.00000E+00
  2.400 4.20390E-45 0.00000E+00 4.20390E-45 0.00000E+00 0.00000E+00
  2.600 2.97215E-42 0.00000E+00 2.97215E-42 0.00000E+00 0.00000E+00
  2.800 1.03979E-39 0.00000E+00 1.03979E-39 0.00000E+00 0.00000E+00
  3.000 1.67826E-36 0.00000E+00 1.67826E-36 0.00000E+00 0.00000E+00
  3.200 1.85351E-34 0.00000E+00 1.85351E-34 0.00000E+00 0.00000E+00
  3.400 1.29546E-32 0.00000E+00 1.29546E-32 0.00000E+00 0.00000E+00
  3.600 6.13783E-31 0.00000E+00 6.13783E-31 0.00000E+00 0.00000E+00
  3.800 2.07511E-29 0.00000E+00 2.07511E-29 0.00000E+00 0.00000E+00
  4.000 5.22685E-28 0.00000E+00 5.22685E-28 0.00000E+00 0.00000E+00
  4.500 5.71548E-25 0.00000E+00 5.71548E-25 0.00000E+00 0.00000E+00
  5.000 1.86046E-22 0.00000E+00 1.86046E-22 0.00000E+00 0.00000E+00
  5.500 2.39737E-20 0.00000E+00 2.39737E-20 0.00000E+00 0.00000E+00
  6.000 1.49600E-18 0.00000E+00 1.49600E-18 0.00000E+00 0.00000E+00
  6.500 5.23684E-17 0.00000E+00 5.23684E-17 0.00000E+00 0.00000E+00
  7.000 1.14872E-15 0.00000E+00 1.14872E-15 0.00000E+00 0.00000E+00
  7.500 1.71951E-14 0.00000E+00 1.71951E-14 0.00000E+00 0.00000E+00
  8.000 1.87772E-13 0.00000E+00 1.87772E-13 0.00000E+00 0.00000E+00
  8.500 1.57730E-12 0.00000E+00 1.57730E-12 0.00000E+00 0.00000E+00
  9.000 1.06327E-11 0.00000E+00 1.06327E-11 0.00000E+00 0.00000E+00
  9.500 5.95078E-11 0.00000E+00 5.95078E-11 0.00000E+00 0.00000E+00
 10.000 3.34881E-10 0.00000E+00 2.84181E-10 0.00000E+00 5.07001E-11
 10.500 1.61620E-09 0.00000E+00 1.18404E-09 0.00000E+00 4.32156E-10
 11.000 5.87503E-09 0.00000E+00 4.38341E-09 0.00000E+00 1.49163E-09
 11.500 1.73450E-08 0.00000E+00 1.46385E-08 0.00000E+00 2.70644E-09
 12.000 5.11565E-08 0.00000E+00 4.46611E-08 0.00000E+00 6.49531E-09
 12.500 1.39647E-07 0.00000E+00 1.25843E-07 0.00000E+00 1.38041E-08
 13.000 3.51899E-07 0.00000E+00 3.30553E-07 0.00000E+00 2.13463E-08
 13.500 8.50997E-07 0.00000E+00 8.15918E-07 0.00000E+00 3.50789E-08
 14.000 1.96604E-06 0.00000E+00 1.90557E-06 0.00000E+00 6.04727E-08
 14.500 4.32072E-06 0.00000E+00 4.23569E-06 0.00000E+00 8.50290E-08
 15.000 9.12399E-06 0.00000E+00 9.00554E-06 0.00000E+00 1.18452E-07
 15.500 1.85529E-05 0.00000E+00 1.83865E-05 0.00000E+00 1.66405E-07
 16.000 3.63885E-05 0.00000E+00 3.61686E-05 0.00000E+00 2.19867E-07
 16.500 6.89996E-05 0.00000E+00 6.87196E-05 0.00000E+00 2.79991E-07
 17.000 1.26677E-04 0.00000E+00 1.26337E-04 0.00000E+00 3.39410E-07
 17.500 2.25377E-04 0.00000E+00 2.24966E-04 0.00000E+00 4.11405E-07
 18.000 3.88578E-04 0.00000E+00 3.88100E-04 0.00000E+00 4.78451E-07
 18.500 6.48842E-04 0.00000E+00 6.48310E-04 0.00000E+00 5.32296E-07
 19.000 1.04761E-03 0.00000E+00 1.04704E-03 0.00000E+00 5.73220E-07
 19.500 1.63180E-03 0.00000E+00 1.63121E-03 0.00000E+00 5.95521E-07
 20.000 2.44573E-03 0.00000E+00 2.44513E-03 0.00000E+00 6.04448E-07
 21.000 4.85514E-03 0.00000E+00 4.85461E-03 0.00000E+00 5.27523E-07
 22.000 8.18380E-03 0.00000E+00 8.18339E-03 0.00000E+00 4.10711E-07
 23.000 1.20095E-02 0.00000E+00 1.20092E-02 0.00000E+00 2.62005E-07
 24.000 1.59066E-02 0.00000E+00 1.59064E-02 0.00000E+00 1.59608E-07
 25.000 1.95398E-02 0.00000E+00 1.95397E-02 0.00000E+00 8.53339E-08
 26.000 2.26657E-02 0.00000E+00 2.26656E-02 0.00000E+00 4.14465E-08
 27.000 2.53427E-02 0.00000E+00 2.53426E-02 0.00000E+00 2.06136E-08
 28.000 2.75678E-02 0.00000E+00 2.75678E-02 0.00000E+00 9.83643E-09
 29.000 2.93593E-02 0.00000E+00 2.93593E-02 0.00000E+00 4.27304E-09
 30.000 3.07456E-02 0.00000E+00 3.07456E-02 0.00000E+00 1.68831E-09
 31.000 3.17565E-02 0.00000E+00 3.17565E-02 0.00000E+00 8.20868E-10
 32.000 3.24252E-02 0.00000E+00 3.24252E-02 0.00000E+00 3.30522E-10
 33.000 3.27878E-02 0.00000E+00 3.27878E-02 0.00000E+00 0.00000E+00
 34.000 3.28691E-02 0.00000E+00 3.28691E-02 0.00000E+00 0.00000E+00
 35.000 3.26996E-02 0.00000E+00 3.26996E-02 0.00000E+00 0.00000E+00
 36.000 3.23088E-02 0.00000E+00 3.23088E-02 0.00000E+00 0.00000E+00
 37.000 3.17210E-02 0.00000E+00 3.17210E-02 0.00000E+00 0.00000E+00
 38.000 3.09598E-02 0.00000E+00 3.09598E-02 0.00000E+00 0.00000E+00
 39.000 3.00520E-02 0.00000E+00 3.00520E-02 0.00000E+00 0.00000E+00
 40.000 2.90169E-02 0.00000E+00 2.90169E-02 0.00000E+00 0.00000E+00
 42.000 2.66466E-02 0.00000E+00 2.66466E-02 0.00000E+00 0.00000E+00
 44.000 2.39853E-02 0.00000E+00 2.39853E-02 0.00000E+00 0.00000E+00
 46.000 2.11464E-02 0.00000E+00 2.11464E-02 0.00000E+00 0.00000E+00
 48.000 1.82022E-02 0.00000E+00 1.82022E-02 0.00000E+00 0.00000E+00
 50.000 1.51876E-02 0.00000E+00 1.51876E-02 0.00000E+00 0.00000E+00
 52.000 1.20875E-02 0.00000E+00 1.20875E-02 0.00000E+00 0.00000E+00
 54.000 8.82823E-03 0.00000E+00 8.82823E-03 0.00000E+00 0.00000E+00
 54.100 8.50420E-03 3.17756E-07 8.50388E-03 0.00000E+00 0.00000E+00
 54.200 8.18038E-03 8.62368E-07 8.17952E-03 0.00000E+00 0.00000E+00
 54.300 7.85739E-03 2.21214E-06 7.85518E-03 0.00000E+00 0.00000E+00
 54.400 7.53618E-03 5.36397E-06 7.53082E-03 0.00000E+00 0.00000E+00
 54.500 7.21877E-03 1.22938E-05 7.20647E-03 0.00000E+00 0.00000E+00
 54.600 6.90876E-03 2.66334E-05 6.88213E-03 0.00000E+00 0.00000E+00
 54.700 6.61231E-03 5.45411E-05 6.55777E-03 0.00000E+00 0.00000E+00
 54.800 6.33900E-03 1.05575E-04 6.23342E-03 0.00000E+00 0.00000E+00
 54.900 6.10225E-03 1.93181E-04 5.90907E-03 0.00000E+00 0.00000E+00
 55.000 5.91886E-03 3.34144E-04 5.58472E-03 0.00000E+00 0.00000E+00
 55.100 5.80677E-03 5.46392E-04 5.26037E-03 0.00000E+00 0.00000E+00
 55.200 5.78076E-03 8.44746E-04 4.93602E-03 0.00000E+00 0.00000E+00
 55.300 5.84665E-03 1.23498E-03 4.61167E-03 0.00000E+00 0.00000E+00
 55.400 5.99514E-03 1.70783E-03 4.28731E-03 0.00000E+00 0.00000E+00
 55.500 6.19803E-03 2.23506E-03 3.96297E-03 0.00000E+00 0.00000E+00
 55.600 6.40926E-03 2.77064E-03 3.63862E-03 0.00000E+00 0.00000E+00
 55.700 6.57238E-03 3.25811E-03 3.31426E-03 0.00000E+00 0.00000E+00
 55.800 6.63367E-03 3.64375E-03 2.98992E-03 0.00000E+00 0.00000E+00
 55.900 6.55779E-03 3.89223E-03 2.66556E-03 0.00000E+00 0.00000E+00
 56.000 6.34037E-03 3.99916E-03 2.34121E-03 0.00000E+00 0.00000E+00
 56.100 6.22001E-03 3.99585E-03 2.22416E-03 0.00000E+00 0.00000E+00
 56.200 6.05039E-03 3.94330E-03 2.10709E-03 0.00000E+00 0.00000E+00
 56.300 5.90635E-03 3.91631E-03 1.99003E-03 0.00000E+00 0.00000E+00
 56.400 5.85549E-03 3.98252E-03 1.87297E-03 0.00000E+00 0.00000E+00
 56.500 5.93846E-03 4.18255E-03 1.75591E-03 0.00000E+00 0.00000E+00
 56.600 6.15637E-03 4.51752E-03 1.63885E-03 0.00000E+00 0.00000E+00
 56.700 6.46926E-03 4.94747E-03 1.52179E-03 0.00000E+00 0.00000E+00
 56.800 6.80537E-03 5.40064E-03 1.40473E-03 0.00000E+00 0.00000E+00
 56.900 7.07876E-03 5.79110E-03 1.28767E-03 0.00000E+00 0.00000E+00
 57.000 7.20980E-03 6.03920E-03 1.17061E-03 0.00000E+00 0.00000E+00
 57.100 7.14357E-03 6.09002E-03 1.05355E-03 0.00000E+00 0.00000E+00
 57.200 6.86152E-03 5.92503E-03 9.36485E-04 0.00000E+00 0.00000E+00
 57.300 6.38431E-03 5.56489E-03 8.19426E-04 0.00000E+00 0.00000E+00
 57.400 5.76528E-03 5.06292E-03 7.02362E-04 0.00000E+00 0.00000E+00
 57.500 5.07722E-03 4.49191E-03 5.85304E-04 0.00000E+00 0.00000E+00
 57.600 4.39542E-03 3.92717E-03 4.68245E-04 0.00000E+00 0.00000E+00
 57.700 3.78185E-03 3.43067E-03 3.51181E-04 0.00000E+00 0.00000E+00
 57.800 3.27384E-03 3.03972E-03 2.34122E-04 0.00000E+00 0.00000E+00
 57.900 2.87945E-03 2.76239E-03 1.17059E-04 0.00000E+00 0.00000E+00
 58.000 2.58051E-03 2.58051E-03 0.00000E+00 0.00000E+00 0.00000E+00
 58.100 2.45827E-03 2.45827E-03 0.00000E+00 0.00000E+00 0.00000E+00
 58.200 2.35395E-03 2.35395E-03 0.00000E+00 0.00000E+00 0.00000E+00
 58.300 2.23116E-03 2.23116E-03 0.00000E+00 0.00000E+00 0.00000E+00
 58.400 2.06680E-03 2.06680E-03 0.00000E+00 0.00000E+00 0.00000E+00
 58.500 1.85429E-03 1.85429E-03 0.00000E+00 0.00000E+00 0.00000E+00
 58.600 1.60199E-03 1.60199E-03 0.00000E+00 0.00000E+00 0.00000E+00
 58.700 1.32817E-03 1.32817E-03 0.00000E+00 0.00000E+00 0.00000E+00
 58.800 1.05479E-03 1.05479E-03 0.00000E+00 0.00000E+00 0.00000E+00
 58.900 8.01718E-04 8.01718E-04 0.00000E+00 0.00000E+00 0.00000E+00
 59.000 5.83082E-04 5.83082E-04 0.00000E+00 0.00000E+00 0.00000E+00
 59.100 4.05831E-04 4.05831E-04 0.00000E+00 0.00000E+00 0.00000E+00
 59.200 2.70408E-04 2.70408E-04 0.00000E+00 0.00000E+00 0.00000E+00
 59.300 1.72573E-04 1.72573E-04 0.00000E+00 0.00000E+00 0.00000E+00
 59.400 1.05541E-04 1.05541E-04 0.00000E+00 0.00000E+00 0.00000E+00
 59.500 6.18884E-05 6.18884E-05 0.00000E+00 0.00000E+00 0.00000E+00
 59.600 3.48124E-05 3.48124E-05 0.00000E+00 0.00000E+00 0.00000E+00
 59.700 1.87912E-05 1.87912E-05 0.00000E+00 0.00000E+00 0.00000E+00
 59.800 9.73664E-06 9.73664E-06 0.00000E+00 0.00000E+00 0.00000E+00
 59.900 4.84325E-06 4.84325E-06 0.00000E+00 0.00000E+00 0.00000E+00
 60.000 2.31290E-06 2.31290E-06 0.00000E+00 0.00000E+00 0.00000E+00
 60.100 1.06022E-06 1.06022E-06 0.00000E+00 0.00000E+00 0.00000E+00
 60.200 4.66347E-07 4.66347E-07 0.00000E+00 0.00000E+00 0.00000E+00
 60.300 1.96769E-07 1.96769E-07 0.00000E+00 0.00000E+00 0.00000E+00
 60.400 7.95965E-08 7.95965E-08 0.00000E+00 0.00000E+00 0.00000E+00
 60.500 3.08541E-08 3.08541E-08 0.00000E+00 0.00000E+00 0.00000E+00
 60.600 1.14537E-08 1.14537E-08 0.00000E+00 0.00000E+00 0.00000E+00
 60.700 4.06923E-09 4.06923E-09 0.00000E+00 0.00000E+00 0.00000E+00
 60.800 1.38291E-09 1.38291E-09 0.00000E+00 0.00000E+00 0.00000E+00
 60.900 4.49277E-10 4.49277E-10 0.00000E+00 0.00000E+00 0.00000E+00
 61.000 1.39470E-10 1.39470E-10 0.00000E+00 0.00000E+00 0.00000E+00
 61.100 4.13495E-11 4.13495E-11 0.00000E+00 0.00000E+00 0.00000E+00
 61.200 1.17024E-11 1.17024E-11 0.00000E+00 0.00000E+00 0.00000E+00
 61.300 3.16061E-12 3.16061E-12 0.00000E+00 0.00000E+00 0.00000E+00
 61.400 8.14275E-13 8.14275E-13 0.00000E+00 0.00000E+00 0.00000E+00
 61.500 2.00076E-13 2.00076E-13 0.00000E+00 0.00000E+00 0.00000E+00
 61.600 4.68718E-14 4.68718E-14 0.00000E+00 0.00000E+00 0.00000E+00
 61.700 1.04666E-14 1.04666E-14 0.00000E+00 0.00000E+00 0.00000E+00
 61.800 2.22765E-15 2.22765E-15 0.00000E+00 0.00000E+00 0.00000E+00
 61.900 4.51770E-16 4.51770E-16 0.00000E+00 0.00000E+00 0.00000E+00
 62.000 8.73004E-17 8.73004E-17 0.00000E+00 0.00000E+00 0.00000E+00
 62.100 1.60720E-17 1.60720E-17 0.00000E+00 0.00000E+00 0.00000E+00
 62.200 2.81846E-18 2.81846E-18 0.00000E+00 0.00000E+00 0.00000E+00
 62.300 4.70832E-19 4.70832E-19 0.00000E+00 0.00000E+00 0.00000E+00
 62.400 7.49112E-20 7.49112E-20 0.00000E+00 0.00000E+00 0.00000E+00
 62.500 1.13525E-20 1.13525E-20 0.00000E+00 0.00000E+00 0.00000E+00
 62.600 1.63853E-21 1.63853E-21 0.00000E+00 0.00000E+00 0.00000E+00
 62.700 2.25209E-22 2.25209E-22 0.00000E+00 0.00000E+00 0.00000E+00
 62.800 2.94807E-23 2.94807E-23 0.00000E+00 0.00000E+00 0.00000E+00
 62.900 3.67480E-24 3.67480E-24 0.00000E+00 0.00000E+00 0.00000E+00
 63.000 4.36250E-25 4.36250E-25 0.00000E+00 0.00000E+00 0.00000E+00
 63.100 4.93174E-26 4.93174E-26 0.00000E+00 0.00000E+00 0.00000E+00
 63.200 5.30866E-27 5.30866E-27 0.00000E+00 0.00000E+00 0.00000E+00
 63.300 5.44203E-28 5.44203E-28 0.00000E+00 0.00000E+00 0.00000E+00
 63.400 5.31186E-29 5.31186E-29 0.00000E+00 0.00000E+00 0.00000E+00
 63.500 4.93762E-30 4.93762E-30 0.00000E+00 0.00000E+00 0.00000E+00
 63.600 4.37051E-31 4.37051E-31 0.00000E+00 0.00000E+00 0.00000E+00
 63.700 3.68339E-32 3.68339E-32 0.00000E+00 0.00000E+00 0.00000E+00
 63.800 2.95626E-33 2.95626E-33 0.00000E+00 0.00000E+00 0.00000E+00
 63.900 2.25910E-34 2.25910E-34 0.00000E+00 0.00000E+00 0.00000E+00
 64.000 1.64402E-35 1.64402E-35 0.00000E+00 0.00000E+00 0.00000E+00
 64.100 1.13924E-36 1.13924E-36 0.00000E+00 0.00000E+00 0.00000E+00
 64.200 7.51731E-38 7.51731E-38 0.00000E+00 0.00000E+00 0.00000E+00
 64.300 4.72227E-39 4.72227E-39 0.00000E+00 0.00000E+00 0.00000E+00
 64.400 2.82530E-40 2.82530E-40 0.00000E+00 0.00000E+00 0.00000E+00
 64.500 1.60967E-41 1.60967E-41 0.00000E+00 0.00000E+00 0.00000E+00
 64.600 8.73009E-43 8.73009E-43 0.00000E+00 0.00000E+00 0.00000E+00
 64.700 4.48416E-44 4.48416E-44 0.00000E+00 0.00000E+00 0.00000E+00
 64.800 2.80260E-45 2.80260E-45 0.00000E+00 0.00000E+00 0.00000E+00
 64.900 0.00000E+00 0.00000E+00 0.00000E+00 0.00000E+00 0.00000E+00
 65.000 0.00000E+00 0.00000E+00 0.00000E+00 0.00000E+00 0.00000E+00
 65.100 0.00000E+00 0.00000E+00 0.00000E+00 0.00000E+00 0.00000E+00
 65.200 0.00000E+00 0.00000E+00 0.00000E+00 0.00000E+00 0.00000E+00
 65.300 0.00000E+00 0.00000E+00 0.00000E+00 0.00000E+00 0.00000E+00
 65.400 0.00000E+00 0.00000E+00 0.00000E+00 0.00000E+00 0.00000E+00
 65.500 0.00000E+00 0.00000E+00 0.00000E+00 0.00000E+00 0.00000E+00
 65.600 0.00000E+00 0.00000E+00 0.00000E+00 0.00000E+00 0.00000E+00
 65.700 0.00000E+00 0.00000E+00 0.00000E+00 0.00000E+00 0.00000E+00
 65.800 0.00000E+00 0.00000E+00 0.00000E+00 0.00000E+00 0.00000E+00
 65.900 0.00000E+00 0.00000E+00 0.00000E+00 0.00000E+00 0.00000E+00
 66.000 0.00000E+00 0.00000E+00 0.00000E+00 0.00000E+00 0.00000E+00
 66.100 0.00000E+00 0.00000E+00 0.00000E+00 0.00000E+00 0.00000E+00
 66.200 0.00000E+00 0.00000E+00 0.00000E+00 0.00000E+00 0.00000E+00
 66.300 0.00000E+00 0.00000E+00 0.00000E+00 0.00000E+00 0.00000E+00
 66.400 0.00000E+00 0.00000E+00 0.00000E+00 0.00000E+00 0.00000E+00
 66.500 0.00000E+00 0.00000E+00 0.00000E+00 0.00000E+00 0.00000E+00
 66.600 0.00000E+00 0.00000E+00 0.00000E+00 0.00000E+00 0.00000E+00
 66.700 0.00000E+00 0.00000E+00 0.00000E+00 0.00000E+00 0.00000E+00
 66.800 0.00000E+00 0.00000E+00 0.00000E+00 0.00000E+00 0.00000E+00
 66.900 0.00000E+00 0.00000E+00 0.00000E+00 0.00000E+00 0.00000E+00
 67.000 0.00000E+00 0.00000E+00 0.00000E+00 0.00000E+00 0.00000E+00
 67.100 0.00000E+00 0.00000E+00 0.00000E+00 0.00000E+00 0.00000E+00
 67.200 0.00000E+00 0.00000E+00 0.00000E+00 0.00000E+00 0.00000E+00
 67.300 0.00000E+00 0.00000E+00 0.00000E+00 0.00000E+00 0.00000E+00
 67.400 0.00000E+00 0.00000E+00 0.00000E+00 0.00000E+00 0.00000E+00
 67.500 0.00000E+00 0.00000E+00 0.00000E+00 0.00000E+00 0.00000E+00
 67.600 0.00000E+00 0.00000E+00 0.00000E+00 0.00000E+00 0.00000E+00
 67.700 0.00000E+00 0.00000E+00 0.00000E+00 0.00000E+00 0.00000E+00
 67.800 0.00000E+00 0.00000E+00 0.00000E+00 0.00000E+00 0.00000E+00
 67.900 0.00000E+00 0.00000E+00 0.00000E+00 0.00000E+00 0.00000E+00
 68.000 0.00000E+00 0.00000E+00 0.00000E+00 0.00000E+00 0.00000E+00
