# n + 209Bi: helium-3 DDX spectrum
# E-incident =  63.000
# Angle      =  20.000
# # energies =223
# E-out    Total       Direct    Pre-equil.  Mult. preeq  Compound
  0.700 0.00000E+00 0.00000E+00 0.00000E+00 0.00000E+00 0.00000E+00
  0.800 0.00000E+00 0.00000E+00 0.00000E+00 0.00000E+00 0.00000E+00
  0.900 0.00000E+00 0.00000E+00 0.00000E+00 0.00000E+00 0.00000E+00
  1.000 0.00000E+00 0.00000E+00 0.00000E+00 0.00000E+00 0.00000E+00
  1.100 0.00000E+00 0.00000E+00 0.00000E+00 0.00000E+00 0.00000E+00
  1.200 0.00000E+00 0.00000E+00 0.00000E+00 0.00000E+00 0.00000E+00
  1.300 0.00000E+00 0.00000E+00 0.00000E+00 0.00000E+00 0.00000E+00
  1.400 0.00000E+00 0.00000E+00 0.00000E+00 0.00000E+00 0.00000E+00
  1.500 0.00000E+00 0.00000E+00 0.00000E+00 0.00000E+00 0.00000E+00
  1.600 0.00000E+00 0.00000E+00 0.00000E+00 0.00000E+00 0.00000E+00
  1.700 0.00000E+00 0.00000E+00 0.00000E+00 0.00000E+00 0.00000E+00
  1.800 0.00000E+00 0.00000E+00 0.00000E+00 0.00000E+00 0.00000E+00
  1.900 0.00000E+00 0.00000E+00 0.00000E+00 0.00000E+00 0.00000E+00
  2.000 0.00000E+00 0.00000E+00 0.00000E+00 0.00000E+00 0.00000E+00
  2.200 0.00000E+00 0.00000E+00 0.00000E+00 0.00000E+00 0.00000E+00
  2.400 4.20390E-45 0.00000E+00 4.20390E-45 0.00000E+00 0.00000E+00
  2.600 2.97356E-42 0.00000E+00 2.97356E-42 0.00000E+00 0.00000E+00
  2.800 1.03999E-39 0.00000E+00 1.03999E-39 0.00000E+00 0.00000E+00
  3.000 1.67860E-36 0.00000E+00 1.67860E-36 0.00000E+00 0.00000E+00
  3.200 1.85385E-34 0.00000E+00 1.85385E-34 0.00000E+00 0.00000E+00
  3.400 1.29575E-32 0.00000E+00 1.29575E-32 0.00000E+00 0.00000E+00
  3.600 6.13922E-31 0.00000E+00 6.13922E-31 0.00000E+00 0.00000E+00
  3.800 2.07559E-29 0.00000E+00 2.07559E-29 0.00000E+00 0.00000E+00
  4.000 5.22809E-28 0.00000E+00 5.22809E-28 0.00000E+00 0.00000E+00
  4.500 5.71682E-25 0.00000E+00 5.71682E-25 0.00000E+00 0.00000E+00
  5.000 1.86085E-22 0.00000E+00 1.86085E-22 0.00000E+00 0.00000E+00
  5.500 2.39791E-20 0.00000E+00 2.39791E-20 0.00000E+00 0.00000E+00
  6.000 1.49636E-18 0.00000E+00 1.49636E-18 0.00000E+00 0.00000E+00
  6.500 5.23817E-17 0.00000E+00 5.23817E-17 0.00000E+00 0.00000E+00
  7.000 1.14899E-15 0.00000E+00 1.14899E-15 0.00000E+00 0.00000E+00
  7.500 1.71993E-14 0.00000E+00 1.71993E-14 0.00000E+00 0.00000E+00
  8.000 1.87818E-13 0.00000E+00 1.87818E-13 0.00000E+00 0.00000E+00
  8.500 1.57767E-12 0.00000E+00 1.57767E-12 0.00000E+00 0.00000E+00
  9.000 1.06354E-11 0.00000E+00 1.06354E-11 0.00000E+00 0.00000E+00
  9.500 5.95215E-11 0.00000E+00 5.95215E-11 0.00000E+00 0.00000E+00
 10.000 2.88409E-10 0.00000E+00 2.84252E-10 0.00000E+00 4.15647E-12
 10.500 1.38861E-09 0.00000E+00 1.18434E-09 0.00000E+00 2.04272E-10
 11.000 5.51068E-09 0.00000E+00 4.38455E-09 0.00000E+00 1.12613E-09
 11.500 1.69473E-08 0.00000E+00 1.46422E-08 0.00000E+00 2.30512E-09
 12.000 4.94956E-08 0.00000E+00 4.46724E-08 0.00000E+00 4.82317E-09
 12.500 1.36254E-07 0.00000E+00 1.25877E-07 0.00000E+00 1.03770E-08
 13.000 3.47397E-07 0.00000E+00 3.30639E-07 0.00000E+00 1.67579E-08
 13.500 8.44070E-07 0.00000E+00 8.16131E-07 0.00000E+00 2.79386E-08
 14.000 1.95116E-06 0.00000E+00 1.90609E-06 0.00000E+00 4.50745E-08
 14.500 4.29964E-06 0.00000E+00 4.23690E-06 0.00000E+00 6.27364E-08
 15.000 9.09755E-06 0.00000E+00 9.00792E-06 0.00000E+00 8.96323E-08
 15.500 1.85140E-05 0.00000E+00 1.83915E-05 0.00000E+00 1.22502E-07
 16.000 3.63345E-05 0.00000E+00 3.61785E-05 0.00000E+00 1.55978E-07
 16.500 6.89386E-05 0.00000E+00 6.87387E-05 0.00000E+00 1.99918E-07
 17.000 1.26616E-04 0.00000E+00 1.26372E-04 0.00000E+00 2.44568E-07
 17.500 2.25320E-04 0.00000E+00 2.25030E-04 0.00000E+00 2.89402E-07
 18.000 3.88554E-04 0.00000E+00 3.88221E-04 0.00000E+00 3.32581E-07
 18.500 6.48871E-04 0.00000E+00 6.48499E-04 0.00000E+00 3.72548E-07
 19.000 1.04773E-03 0.00000E+00 1.04733E-03 0.00000E+00 4.02645E-07
 19.500 1.63208E-03 0.00000E+00 1.63167E-03 0.00000E+00 4.11584E-07
 20.000 2.44625E-03 0.00000E+00 2.44583E-03 0.00000E+00 4.17471E-07
 21.000 4.85621E-03 0.00000E+00 4.85585E-03 0.00000E+00 3.65295E-07
 22.000 8.18594E-03 0.00000E+00 8.18566E-03 0.00000E+00 2.81718E-07
 23.000 1.20128E-02 0.00000E+00 1.20126E-02 0.00000E+00 1.81034E-07
 24.000 1.59111E-02 0.00000E+00 1.59110E-02 0.00000E+00 1.09257E-07
 25.000 1.95463E-02 0.00000E+00 1.95463E-02 0.00000E+00 5.89343E-08
 26.000 2.26734E-02 0.00000E+00 2.26734E-02 0.00000E+00 2.80546E-08
 27.000 2.53514E-02 0.00000E+00 2.53514E-02 0.00000E+00 1.39808E-08
 28.000 2.75775E-02 0.00000E+00 2.75775E-02 0.00000E+00 6.70395E-09
 29.000 2.93697E-02 0.00000E+00 2.93697E-02 0.00000E+00 2.83994E-09
 30.000 3.07558E-02 0.00000E+00 3.07558E-02 0.00000E+00 1.14297E-09
 31.000 3.17676E-02 0.00000E+00 3.17676E-02 0.00000E+00 5.53647E-10
 32.000 3.24382E-02 0.00000E+00 3.24382E-02 0.00000E+00 2.25102E-10
 33.000 3.27994E-02 0.00000E+00 3.27994E-02 0.00000E+00 0.00000E+00
 34.000 3.28812E-02 0.00000E+00 3.28812E-02 0.00000E+00 0.00000E+00
 35.000 3.27131E-02 0.00000E+00 3.27131E-02 0.00000E+00 0.00000E+00
 36.000 3.23217E-02 0.00000E+00 3.23217E-02 0.00000E+00 0.00000E+00
 37.000 3.17334E-02 0.00000E+00 3.17334E-02 0.00000E+00 0.00000E+00
 38.000 3.09736E-02 0.00000E+00 3.09736E-02 0.00000E+00 0.00000E+00
 39.000 3.00651E-02 0.00000E+00 3.00651E-02 0.00000E+00 0.00000E+00
 40.000 2.90298E-02 0.00000E+00 2.90298E-02 0.00000E+00 0.00000E+00
 42.000 2.66579E-02 0.00000E+00 2.66579E-02 0.00000E+00 0.00000E+00
 44.000 2.39968E-02 0.00000E+00 2.39968E-02 0.00000E+00 0.00000E+00
 46.000 2.11563E-02 0.00000E+00 2.11563E-02 0.00000E+00 0.00000E+00
 48.000 1.82115E-02 0.00000E+00 1.82115E-02 0.00000E+00 0.00000E+00
 50.000 1.51964E-02 0.00000E+00 1.51964E-02 0.00000E+00 0.00000E+00
 52.000 1.20961E-02 0.00000E+00 1.20961E-02 0.00000E+00 0.00000E+00
 54.000 8.83607E-03 0.00000E+00 8.83607E-03 0.00000E+00 0.00000E+00
 54.100 8.51230E-03 3.06800E-07 8.51199E-03 0.00000E+00 0.00000E+00
 54.200 8.18875E-03 8.34208E-07 8.18791E-03 0.00000E+00 0.00000E+00
 54.300 7.86598E-03 2.14397E-06 7.86384E-03 0.00000E+00 0.00000E+00
 54.400 7.54496E-03 5.20861E-06 7.53976E-03 0.00000E+00 0.00000E+00
 54.500 7.22765E-03 1.19606E-05 7.21568E-03 0.00000E+00 0.00000E+00
 54.600 6.91758E-03 2.59618E-05 6.89161E-03 0.00000E+00 0.00000E+00
 54.700 6.62080E-03 5.32692E-05 6.56753E-03 0.00000E+00 0.00000E+00
 54.800 6.34677E-03 1.03314E-04 6.24346E-03 0.00000E+00 0.00000E+00
 54.900 6.10879E-03 1.89417E-04 5.91938E-03 0.00000E+00 0.00000E+00
 55.000 5.92358E-03 3.28280E-04 5.59530E-03 0.00000E+00 0.00000E+00
 55.100 5.80910E-03 5.37868E-04 5.27123E-03 0.00000E+00 0.00000E+00
 55.200 5.78037E-03 8.33223E-04 4.94715E-03 0.00000E+00 0.00000E+00
 55.300 5.84364E-03 1.22056E-03 4.62308E-03 0.00000E+00 0.00000E+00
 55.400 5.99025E-03 1.69125E-03 4.29899E-03 0.00000E+00 0.00000E+00
 55.500 6.19268E-03 2.21776E-03 3.97492E-03 0.00000E+00 0.00000E+00
 55.600 6.40541E-03 2.75456E-03 3.65085E-03 0.00000E+00 0.00000E+00
 55.700 6.57211E-03 3.24534E-03 3.32677E-03 0.00000E+00 0.00000E+00
 55.800 6.63867E-03 3.63597E-03 3.00270E-03 0.00000E+00 0.00000E+00
 55.900 6.56878E-03 3.89016E-03 2.67861E-03 0.00000E+00 0.00000E+00
 56.000 6.35679E-03 4.00224E-03 2.35454E-03 0.00000E+00 0.00000E+00
 56.100 6.23911E-03 4.00229E-03 2.23682E-03 0.00000E+00 0.00000E+00
 56.200 6.06955E-03 3.95047E-03 2.11909E-03 0.00000E+00 0.00000E+00
 56.300 5.92285E-03 3.92149E-03 2.00136E-03 0.00000E+00 0.00000E+00
 56.400 5.86732E-03 3.98369E-03 1.88363E-03 0.00000E+00 0.00000E+00
 56.500 5.94487E-03 4.17897E-03 1.76591E-03 0.00000E+00 0.00000E+00
 56.600 6.15817E-03 4.50999E-03 1.64818E-03 0.00000E+00 0.00000E+00
 56.700 6.46857E-03 4.93811E-03 1.53045E-03 0.00000E+00 0.00000E+00
 56.800 6.80505E-03 5.39233E-03 1.41273E-03 0.00000E+00 0.00000E+00
 56.900 7.08165E-03 5.78665E-03 1.29500E-03 0.00000E+00 0.00000E+00
 57.000 7.21784E-03 6.04057E-03 1.17727E-03 0.00000E+00 0.00000E+00
 57.100 7.15719E-03 6.09765E-03 1.05955E-03 0.00000E+00 0.00000E+00
 57.200 6.87933E-03 5.93752E-03 9.41816E-04 0.00000E+00 0.00000E+00
 57.300 6.40308E-03 5.57899E-03 8.24091E-04 0.00000E+00 0.00000E+00
 57.400 5.78034E-03 5.07398E-03 7.06361E-04 0.00000E+00 0.00000E+00
 57.500 5.08312E-03 4.49448E-03 5.88636E-04 0.00000E+00 0.00000E+00
 57.600 4.38678E-03 3.91587E-03 4.70910E-04 0.00000E+00 0.00000E+00
 57.700 3.75419E-03 3.40100E-03 3.53181E-04 0.00000E+00 0.00000E+00
 57.800 3.22428E-03 2.98882E-03 2.35455E-04 0.00000E+00 0.00000E+00
 57.900 2.80723E-03 2.68950E-03 1.17725E-04 0.00000E+00 0.00000E+00
 58.000 2.48715E-03 2.48715E-03 0.00000E+00 0.00000E+00 0.00000E+00
 58.100 2.34807E-03 2.34807E-03 0.00000E+00 0.00000E+00 0.00000E+00
 58.200 2.23215E-03 2.23215E-03 0.00000E+00 0.00000E+00 0.00000E+00
 58.300 2.10392E-03 2.10392E-03 0.00000E+00 0.00000E+00 0.00000E+00
 58.400 1.94039E-03 1.94039E-03 0.00000E+00 0.00000E+00 0.00000E+00
 58.500 1.73438E-03 1.73438E-03 0.00000E+00 0.00000E+00 0.00000E+00
 58.600 1.49308E-03 1.49308E-03 0.00000E+00 0.00000E+00 0.00000E+00
 58.700 1.23328E-03 1.23328E-03 0.00000E+00 0.00000E+00 0.00000E+00
 58.800 9.75378E-04 9.75378E-04 0.00000E+00 0.00000E+00 0.00000E+00
 58.900 7.37834E-04 7.37834E-04 0.00000E+00 0.00000E+00 0.00000E+00
 59.000 5.33663E-04 5.33663E-04 0.00000E+00 0.00000E+00 0.00000E+00
 59.100 3.69074E-04 3.69074E-04 0.00000E+00 0.00000E+00 0.00000E+00
 59.200 2.44131E-04 2.44131E-04 0.00000E+00 0.00000E+00 0.00000E+00
 59.300 1.54527E-04 1.54527E-04 0.00000E+00 0.00000E+00 0.00000E+00
 59.400 9.36458E-05 9.36458E-05 0.00000E+00 0.00000E+00 0.00000E+00
 59.500 5.43679E-05 5.43679E-05 0.00000E+00 0.00000E+00 0.00000E+00
 59.600 3.02562E-05 3.02562E-05 0.00000E+00 0.00000E+00 0.00000E+00
 59.700 1.61485E-05 1.61485E-05 0.00000E+00 0.00000E+00 0.00000E+00
 59.800 8.27016E-06 8.27016E-06 0.00000E+00 0.00000E+00 0.00000E+00
 59.900 4.06536E-06 4.06536E-06 0.00000E+00 0.00000E+00 0.00000E+00
 60.000 1.91870E-06 1.91870E-06 0.00000E+00 0.00000E+00 0.00000E+00
 60.100 8.69490E-07 8.69490E-07 0.00000E+00 0.00000E+00 0.00000E+00
 60.200 3.78291E-07 3.78291E-07 0.00000E+00 0.00000E+00 0.00000E+00
 60.300 1.57989E-07 1.57989E-07 0.00000E+00 0.00000E+00 0.00000E+00
 60.400 6.33121E-08 6.33121E-08 0.00000E+00 0.00000E+00 0.00000E+00
 60.500 2.43355E-08 2.43355E-08 0.00000E+00 0.00000E+00 0.00000E+00
 60.600 8.96691E-09 8.96691E-09 0.00000E+00 0.00000E+00 0.00000E+00
 60.700 3.16535E-09 3.16535E-09 0.00000E+00 0.00000E+00 0.00000E+00
 60.800 1.06991E-09 1.06991E-09 0.00000E+00 0.00000E+00 0.00000E+00
 60.900 3.46038E-10 3.46038E-10 0.00000E+00 0.00000E+00 0.00000E+00
 61.000 1.07036E-10 1.07036E-10 0.00000E+00 0.00000E+00 0.00000E+00
 61.100 3.16451E-11 3.16451E-11 0.00000E+00 0.00000E+00 0.00000E+00
 61.200 8.93741E-12 8.93741E-12 0.00000E+00 0.00000E+00 0.00000E+00
 61.300 2.41039E-12 2.41039E-12 0.00000E+00 0.00000E+00 0.00000E+00
 61.400 6.20451E-13 6.20451E-13 0.00000E+00 0.00000E+00 0.00000E+00
 61.500 1.52392E-13 1.52392E-13 0.00000E+00 0.00000E+00 0.00000E+00
 61.600 3.57019E-14 3.57019E-14 0.00000E+00 0.00000E+00 0.00000E+00
 61.700 7.97535E-15 7.97535E-15 0.00000E+00 0.00000E+00 0.00000E+00
 61.800 1.69859E-15 1.69859E-15 0.00000E+00 0.00000E+00 0.00000E+00
 61.900 3.44800E-16 3.44800E-16 0.00000E+00 0.00000E+00 0.00000E+00
 62.000 6.67063E-17 6.67063E-17 0.00000E+00 0.00000E+00 0.00000E+00
 62.100 1.22970E-17 1.22970E-17 0.00000E+00 0.00000E+00 0.00000E+00
 62.200 2.15967E-18 2.15967E-18 0.00000E+00 0.00000E+00 0.00000E+00
 62.300 3.61361E-19 3.61361E-19 0.00000E+00 0.00000E+00 0.00000E+00
 62.400 5.75929E-20 5.75929E-20 0.00000E+00 0.00000E+00 0.00000E+00
 62.500 8.74380E-21 8.74380E-21 0.00000E+00 0.00000E+00 0.00000E+00
 62.600 1.26439E-21 1.26439E-21 0.00000E+00 0.00000E+00 0.00000E+00
 62.700 1.74124E-22 1.74124E-22 0.00000E+00 0.00000E+00 0.00000E+00
 62.800 2.28391E-23 2.28391E-23 0.00000E+00 0.00000E+00 0.00000E+00
 62.900 2.85276E-24 2.85276E-24 0.00000E+00 0.00000E+00 0.00000E+00
 63.000 3.39370E-25 3.39370E-25 0.00000E+00 0.00000E+00 0.00000E+00
 63.100 3.84467E-26 3.84467E-26 0.00000E+00 0.00000E+00 0.00000E+00
 63.200 4.14742E-27 4.14742E-27 0.00000E+00 0.00000E+00 0.00000E+00
 63.300 4.26086E-28 4.26086E-28 0.00000E+00 0.00000E+00 0.00000E+00
 63.400 4.16809E-29 4.16809E-29 0.00000E+00 0.00000E+00 0.00000E+00
 63.500 3.88303E-30 3.88303E-30 0.00000E+00 0.00000E+00 0.00000E+00
 63.600 3.44474E-31 3.44474E-31 0.00000E+00 0.00000E+00 0.00000E+00
 63.700 2.90971E-32 2.90971E-32 0.00000E+00 0.00000E+00 0.00000E+00
 63.800 2.34061E-33 2.34061E-33 0.00000E+00 0.00000E+00 0.00000E+00
 63.900 1.79272E-34 1.79272E-34 0.00000E+00 0.00000E+00 0.00000E+00
 64.000 1.30762E-35 1.30762E-35 0.00000E+00 0.00000E+00 0.00000E+00
 64.100 9.08219E-37 9.08219E-37 0.00000E+00 0.00000E+00 0.00000E+00
 64.200 6.00679E-38 6.00679E-38 0.00000E+00 0.00000E+00 0.00000E+00
 64.300 3.78218E-39 3.78218E-39 0.00000E+00 0.00000E+00 0.00000E+00
 64.400 2.26816E-40 2.26816E-40 0.00000E+00 0.00000E+00 0.00000E+00
 64.500 1.29522E-41 1.29522E-41 0.00000E+00 0.00000E+00 0.00000E+00
 64.600 7.04853E-43 7.04853E-43 0.00000E+00 0.00000E+00 0.00000E+00
 64.700 3.64338E-44 3.64338E-44 0.00000E+00 0.00000E+00 0.00000E+00
 64.800 1.40130E-45 1.40130E-45 0.00000E+00 0.00000E+00 0.00000E+00
 64.900 0.00000E+00 0.00000E+00 0.00000E+00 0.00000E+00 0.00000E+00
 65.000 0.00000E+00 0.00000E+00 0.00000E+00 0.00000E+00 0.00000E+00
 65.100 0.00000E+00 0.00000E+00 0.00000E+00 0.00000E+00 0.00000E+00
 65.200 0.00000E+00 0.00000E+00 0.00000E+00 0.00000E+00 0.00000E+00
 65.300 0.00000E+00 0.00000E+00 0.00000E+00 0.00000E+00 0.00000E+00
 65.400 0.00000E+00 0.00000E+00 0.00000E+00 0.00000E+00 0.00000E+00
 65.500 0.00000E+00 0.00000E+00 0.00000E+00 0.00000E+00 0.00000E+00
 65.600 0.00000E+00 0.00000E+00 0.00000E+00 0.00000E+00 0.00000E+00
 65.700 0.00000E+00 0.00000E+00 0.00000E+00 0.00000E+00 0.00000E+00
 65.800 0.00000E+00 0.00000E+00 0.00000E+00 0.00000E+00 0.00000E+00
 65.900 0.00000E+00 0.00000E+00 0.00000E+00 0.00000E+00 0.00000E+00
 66.000 0.00000E+00 0.00000E+00 0.00000E+00 0.00000E+00 0.00000E+00
 66.100 0.00000E+00 0.00000E+00 0.00000E+00 0.00000E+00 0.00000E+00
 66.200 0.00000E+00 0.00000E+00 0.00000E+00 0.00000E+00 0.00000E+00
 66.300 0.00000E+00 0.00000E+00 0.00000E+00 0.00000E+00 0.00000E+00
 66.400 0.00000E+00 0.00000E+00 0.00000E+00 0.00000E+00 0.00000E+00
 66.500 0.00000E+00 0.00000E+00 0.00000E+00 0.00000E+00 0.00000E+00
 66.600 0.00000E+00 0.00000E+00 0.00000E+00 0.00000E+00 0.00000E+00
 66.700 0.00000E+00 0.00000E+00 0.00000E+00 0.00000E+00 0.00000E+00
 66.800 0.00000E+00 0.00000E+00 0.00000E+00 0.00000E+00 0.00000E+00
 66.900 0.00000E+00 0.00000E+00 0.00000E+00 0.00000E+00 0.00000E+00
 67.000 0.00000E+00 0.00000E+00 0.00000E+00 0.00000E+00 0.00000E+00
 67.100 0.00000E+00 0.00000E+00 0.00000E+00 0.00000E+00 0.00000E+00
 67.200 0.00000E+00 0.00000E+00 0.00000E+00 0.00000E+00 0.00000E+00
 67.300 0.00000E+00 0.00000E+00 0.00000E+00 0.00000E+00 0.00000E+00
 67.400 0.00000E+00 0.00000E+00 0.00000E+00 0.00000E+00 0.00000E+00
 67.500 0.00000E+00 0.00000E+00 0.00000E+00 0.00000E+00 0.00000E+00
 67.600 0.00000E+00 0.00000E+00 0.00000E+00 0.00000E+00 0.00000E+00
 67.700 0.00000E+00 0.00000E+00 0.00000E+00 0.00000E+00 0.00000E+00
 67.800 0.00000E+00 0.00000E+00 0.00000E+00 0.00000E+00 0.00000E+00
 67.900 0.00000E+00 0.00000E+00 0.00000E+00 0.00000E+00 0.00000E+00
 68.000 0.00000E+00 0.00000E+00 0.00000E+00 0.00000E+00 0.00000E+00
