# n + 209Bi: helium-3 DDX spectrum
# E-incident =  63.000
# Angle      =  70.000
# # energies =223
# E-out    Total       Direct    Pre-equil.  Mult. preeq  Compound
  0.700 0.00000E+00 0.00000E+00 0.00000E+00 0.00000E+00 0.00000E+00
  0.800 0.00000E+00 0.00000E+00 0.00000E+00 0.00000E+00 0.00000E+00
  0.900 0.00000E+00 0.00000E+00 0.00000E+00 0.00000E+00 0.00000E+00
  1.000 0.00000E+00 0.00000E+00 0.00000E+00 0.00000E+00 0.00000E+00
  1.100 0.00000E+00 0.00000E+00 0.00000E+00 0.00000E+00 0.00000E+00
  1.200 0.00000E+00 0.00000E+00 0.00000E+00 0.00000E+00 0.00000E+00
  1.300 0.00000E+00 0.00000E+00 0.00000E+00 0.00000E+00 0.00000E+00
  1.400 0.00000E+00 0.00000E+00 0.00000E+00 0.00000E+00 0.00000E+00
  1.500 0.00000E+00 0.00000E+00 0.00000E+00 0.00000E+00 0.00000E+00
  1.600 0.00000E+00 0.00000E+00 0.00000E+00 0.00000E+00 0.00000E+00
  1.700 0.00000E+00 0.00000E+00 0.00000E+00 0.00000E+00 0.00000E+00
  1.800 0.00000E+00 0.00000E+00 0.00000E+00 0.00000E+00 0.00000E+00
  1.900 0.00000E+00 0.00000E+00 0.00000E+00 0.00000E+00 0.00000E+00
  2.000 0.00000E+00 0.00000E+00 0.00000E+00 0.00000E+00 0.00000E+00
  2.200 0.00000E+00 0.00000E+00 0.00000E+00 0.00000E+00 0.00000E+00
  2.400 2.80260E-45 0.00000E+00 2.80260E-45 0.00000E+00 0.00000E+00
  2.600 1.92118E-42 0.00000E+00 1.92118E-42 0.00000E+00 0.00000E+00
  2.800 6.68631E-40 0.00000E+00 6.68631E-40 0.00000E+00 0.00000E+00
  3.000 1.07367E-36 0.00000E+00 1.07367E-36 0.00000E+00 0.00000E+00
  3.200 1.17968E-34 0.00000E+00 1.17968E-34 0.00000E+00 0.00000E+00
  3.400 8.20298E-33 0.00000E+00 8.20298E-33 0.00000E+00 0.00000E+00
  3.600 3.86652E-31 0.00000E+00 3.86652E-31 0.00000E+00 0.00000E+00
  3.800 1.30047E-29 0.00000E+00 1.30047E-29 0.00000E+00 0.00000E+00
  4.000 3.25873E-28 0.00000E+00 3.25873E-28 0.00000E+00 0.00000E+00
  4.500 3.51735E-25 0.00000E+00 3.51735E-25 0.00000E+00 0.00000E+00
  5.000 1.13005E-22 0.00000E+00 1.13005E-22 0.00000E+00 0.00000E+00
  5.500 1.43720E-20 0.00000E+00 1.43720E-20 0.00000E+00 0.00000E+00
  6.000 8.85084E-19 0.00000E+00 8.85084E-19 0.00000E+00 0.00000E+00
  6.500 3.05748E-17 0.00000E+00 3.05748E-17 0.00000E+00 0.00000E+00
  7.000 6.61759E-16 0.00000E+00 6.61759E-16 0.00000E+00 0.00000E+00
  7.500 9.77378E-15 0.00000E+00 9.77378E-15 0.00000E+00 0.00000E+00
  8.000 1.05294E-13 0.00000E+00 1.05294E-13 0.00000E+00 0.00000E+00
  8.500 8.72556E-13 0.00000E+00 8.72556E-13 0.00000E+00 0.00000E+00
  9.000 5.80208E-12 0.00000E+00 5.80208E-12 0.00000E+00 0.00000E+00
  9.500 3.20271E-11 0.00000E+00 3.20271E-11 0.00000E+00 0.00000E+00
 10.000 1.55023E-10 0.00000E+00 1.50841E-10 0.00000E+00 4.18189E-12
 10.500 8.26671E-10 0.00000E+00 6.19753E-10 0.00000E+00 2.06918E-10
 11.000 3.37562E-09 0.00000E+00 2.26230E-09 0.00000E+00 1.11332E-09
 11.500 9.71070E-09 0.00000E+00 7.44845E-09 0.00000E+00 2.26226E-09
 12.000 2.70998E-08 0.00000E+00 2.24019E-08 0.00000E+00 4.69791E-09
 12.500 7.23194E-08 0.00000E+00 6.22199E-08 0.00000E+00 1.00995E-08
 13.000 1.77299E-07 0.00000E+00 1.61072E-07 0.00000E+00 1.62269E-08
 13.500 4.18869E-07 0.00000E+00 3.91793E-07 0.00000E+00 2.70758E-08
 14.000 9.45486E-07 0.00000E+00 9.01605E-07 0.00000E+00 4.38808E-08
 14.500 2.03550E-06 0.00000E+00 1.97443E-06 0.00000E+00 6.10754E-08
 15.000 4.22273E-06 0.00000E+00 4.13503E-06 0.00000E+00 8.76910E-08
 15.500 8.43554E-06 0.00000E+00 8.31524E-06 0.00000E+00 1.20305E-07
 16.000 1.62619E-05 0.00000E+00 1.61083E-05 0.00000E+00 1.53593E-07
 16.500 3.03332E-05 0.00000E+00 3.01356E-05 0.00000E+00 1.97557E-07
 17.000 5.47863E-05 0.00000E+00 5.45438E-05 0.00000E+00 2.42447E-07
 17.500 9.58948E-05 0.00000E+00 9.56071E-05 0.00000E+00 2.87695E-07
 18.000 1.62668E-04 0.00000E+00 1.62336E-04 0.00000E+00 3.31333E-07
 18.500 2.67222E-04 0.00000E+00 2.66849E-04 0.00000E+00 3.72064E-07
 19.000 4.24429E-04 0.00000E+00 4.24026E-04 0.00000E+00 4.03014E-07
 19.500 6.50290E-04 0.00000E+00 6.49877E-04 0.00000E+00 4.12655E-07
 20.000 9.58591E-04 0.00000E+00 9.58171E-04 0.00000E+00 4.19520E-07
 21.000 1.83992E-03 0.00000E+00 1.83955E-03 0.00000E+00 3.68142E-07
 22.000 2.99711E-03 0.00000E+00 2.99682E-03 0.00000E+00 2.84710E-07
 23.000 4.24773E-03 0.00000E+00 4.24755E-03 0.00000E+00 1.83399E-07
 24.000 5.41842E-03 0.00000E+00 5.41831E-03 0.00000E+00 1.10939E-07
 25.000 6.36970E-03 0.00000E+00 6.36964E-03 0.00000E+00 5.99475E-08
 26.000 7.10837E-03 0.00000E+00 7.10834E-03 0.00000E+00 2.85600E-08
 27.000 7.63813E-03 0.00000E+00 7.63811E-03 0.00000E+00 1.42363E-08
 28.000 7.97591E-03 0.00000E+00 7.97590E-03 0.00000E+00 6.82715E-09
 29.000 8.14425E-03 0.00000E+00 8.14425E-03 0.00000E+00 2.89240E-09
 30.000 8.16708E-03 0.00000E+00 8.16708E-03 0.00000E+00 1.16408E-09
 31.000 8.06771E-03 0.00000E+00 8.06771E-03 0.00000E+00 5.63875E-10
 32.000 7.86793E-03 0.00000E+00 7.86793E-03 0.00000E+00 2.29260E-10
 33.000 7.58745E-03 0.00000E+00 7.58745E-03 0.00000E+00 0.00000E+00
 34.000 7.24376E-03 0.00000E+00 7.24376E-03 0.00000E+00 0.00000E+00
 35.000 6.85263E-03 0.00000E+00 6.85263E-03 0.00000E+00 0.00000E+00
 36.000 6.42768E-03 0.00000E+00 6.42768E-03 0.00000E+00 0.00000E+00
 37.000 5.98106E-03 0.00000E+00 5.98106E-03 0.00000E+00 0.00000E+00
 38.000 5.52330E-03 0.00000E+00 5.52330E-03 0.00000E+00 0.00000E+00
 39.000 5.06325E-03 0.00000E+00 5.06325E-03 0.00000E+00 0.00000E+00
 40.000 4.60837E-03 0.00000E+00 4.60837E-03 0.00000E+00 0.00000E+00
 42.000 3.73747E-03 0.00000E+00 3.73747E-03 0.00000E+00 0.00000E+00
 44.000 2.94537E-03 0.00000E+00 2.94537E-03 0.00000E+00 0.00000E+00
 46.000 2.25081E-03 0.00000E+00 2.25081E-03 0.00000E+00 0.00000E+00
 48.000 1.65972E-03 0.00000E+00 1.65972E-03 0.00000E+00 0.00000E+00
 50.000 1.16857E-03 0.00000E+00 1.16857E-03 0.00000E+00 0.00000E+00
 52.000 7.67497E-04 0.00000E+00 7.67497E-04 0.00000E+00 0.00000E+00
 54.000 4.43247E-04 0.00000E+00 4.43247E-04 0.00000E+00 0.00000E+00
 54.100 4.25154E-04 1.21211E-08 4.25142E-04 0.00000E+00 0.00000E+00
 54.200 4.07070E-04 3.29562E-08 4.07037E-04 0.00000E+00 0.00000E+00
 54.300 3.89016E-04 8.46946E-08 3.88932E-04 0.00000E+00 0.00000E+00
 54.400 3.71032E-04 2.05747E-07 3.70826E-04 0.00000E+00 0.00000E+00
 54.500 3.53193E-04 4.72433E-07 3.52721E-04 0.00000E+00 0.00000E+00
 54.600 3.35641E-04 1.02540E-06 3.34616E-04 0.00000E+00 0.00000E+00
 54.700 3.18614E-04 2.10382E-06 3.16510E-04 0.00000E+00 0.00000E+00
 54.800 3.02485E-04 4.08005E-06 2.98405E-04 0.00000E+00 0.00000E+00
 54.900 2.87779E-04 7.47985E-06 2.80299E-04 0.00000E+00 0.00000E+00
 55.000 2.75157E-04 1.29624E-05 2.62194E-04 0.00000E+00 0.00000E+00
 55.100 2.65325E-04 2.12361E-05 2.44089E-04 0.00000E+00 0.00000E+00
 55.200 2.58877E-04 3.28932E-05 2.25984E-04 0.00000E+00 0.00000E+00
 55.300 2.56054E-04 4.81760E-05 2.07879E-04 0.00000E+00 0.00000E+00
 55.400 2.56510E-04 6.67375E-05 1.89773E-04 0.00000E+00 0.00000E+00
 55.500 2.59147E-04 8.74793E-05 1.71668E-04 0.00000E+00 0.00000E+00
 55.600 2.62148E-04 1.08585E-04 1.53563E-04 0.00000E+00 0.00000E+00
 55.700 2.63256E-04 1.27799E-04 1.35457E-04 0.00000E+00 0.00000E+00
 55.800 2.60289E-04 1.42937E-04 1.17352E-04 0.00000E+00 0.00000E+00
 55.900 2.51742E-04 1.52496E-04 9.92462E-05 0.00000E+00 0.00000E+00
 56.000 2.37305E-04 1.56164E-04 8.11412E-05 0.00000E+00 0.00000E+00
 56.100 2.32111E-04 1.55027E-04 7.70842E-05 0.00000E+00 0.00000E+00
 56.200 2.24388E-04 1.51361E-04 7.30271E-05 0.00000E+00 0.00000E+00
 56.300 2.17016E-04 1.48046E-04 6.89701E-05 0.00000E+00 0.00000E+00
 56.400 2.12678E-04 1.47765E-04 6.49129E-05 0.00000E+00 0.00000E+00
 56.500 2.13103E-04 1.52247E-04 6.08559E-05 0.00000E+00 0.00000E+00
 56.600 2.18570E-04 1.61771E-04 5.67989E-05 0.00000E+00 0.00000E+00
 56.700 2.27821E-04 1.75079E-04 5.27418E-05 0.00000E+00 0.00000E+00
 56.800 2.38386E-04 1.89702E-04 4.86848E-05 0.00000E+00 0.00000E+00
 56.900 2.47211E-04 2.02583E-04 4.46276E-05 0.00000E+00 0.00000E+00
 57.000 2.51396E-04 2.10826E-04 4.05706E-05 0.00000E+00 0.00000E+00
 57.100 2.48872E-04 2.12359E-04 3.65136E-05 0.00000E+00 0.00000E+00
 57.200 2.38827E-04 2.06370E-04 3.24564E-05 0.00000E+00 0.00000E+00
 57.300 2.21824E-04 1.93424E-04 2.83995E-05 0.00000E+00 0.00000E+00
 57.400 1.99592E-04 1.75250E-04 2.43423E-05 0.00000E+00 0.00000E+00
 57.500 1.74581E-04 1.54296E-04 2.02853E-05 0.00000E+00 0.00000E+00
 57.600 1.49381E-04 1.33153E-04 1.62283E-05 0.00000E+00 0.00000E+00
 57.700 1.26182E-04 1.14010E-04 1.21711E-05 0.00000E+00 0.00000E+00
 57.800 1.06380E-04 9.82663E-05 8.11415E-06 0.00000E+00 0.00000E+00
 57.900 9.04170E-05 8.63600E-05 4.05700E-06 0.00000E+00 0.00000E+00
 58.000 7.78600E-05 7.78600E-05 0.00000E+00 0.00000E+00 0.00000E+00
 58.100 7.17357E-05 7.17357E-05 0.00000E+00 0.00000E+00 0.00000E+00
 58.200 6.67310E-05 6.67310E-05 0.00000E+00 0.00000E+00 0.00000E+00
 58.300 6.17226E-05 6.17226E-05 0.00000E+00 0.00000E+00 0.00000E+00
 58.400 5.59732E-05 5.59732E-05 0.00000E+00 0.00000E+00 0.00000E+00
 58.500 4.92341E-05 4.92341E-05 0.00000E+00 0.00000E+00 0.00000E+00
 58.600 4.16960E-05 4.16960E-05 0.00000E+00 0.00000E+00 0.00000E+00
 58.700 3.38383E-05 3.38383E-05 0.00000E+00 0.00000E+00 0.00000E+00
 58.800 2.62390E-05 2.62390E-05 0.00000E+00 0.00000E+00 0.00000E+00
 58.900 1.94062E-05 1.94062E-05 0.00000E+00 0.00000E+00 0.00000E+00
 59.000 1.36756E-05 1.36756E-05 0.00000E+00 0.00000E+00 0.00000E+00
 59.100 9.17697E-06 9.17697E-06 0.00000E+00 0.00000E+00 0.00000E+00
 59.200 5.86188E-06 5.86188E-06 0.00000E+00 0.00000E+00 0.00000E+00
 59.300 3.56360E-06 3.56360E-06 0.00000E+00 0.00000E+00 0.00000E+00
 59.400 2.06153E-06 2.06153E-06 0.00000E+00 0.00000E+00 0.00000E+00
 59.500 1.13485E-06 1.13485E-06 0.00000E+00 0.00000E+00 0.00000E+00
 59.600 5.94446E-07 5.94446E-07 0.00000E+00 0.00000E+00 0.00000E+00
 59.700 2.96281E-07 2.96281E-07 0.00000E+00 0.00000E+00 0.00000E+00
 59.800 1.40521E-07 1.40521E-07 0.00000E+00 0.00000E+00 0.00000E+00
 59.900 6.34183E-08 6.34183E-08 0.00000E+00 0.00000E+00 0.00000E+00
 60.000 2.72375E-08 2.72375E-08 0.00000E+00 0.00000E+00 0.00000E+00
 60.100 1.11329E-08 1.11329E-08 0.00000E+00 0.00000E+00 0.00000E+00
 60.200 4.33066E-09 4.33066E-09 0.00000E+00 0.00000E+00 0.00000E+00
 60.300 1.60350E-09 1.60350E-09 0.00000E+00 0.00000E+00 0.00000E+00
 60.400 5.65146E-10 5.65146E-10 0.00000E+00 0.00000E+00 0.00000E+00
 60.500 1.89635E-10 1.89635E-10 0.00000E+00 0.00000E+00 0.00000E+00
 60.600 6.05885E-11 6.05885E-11 0.00000E+00 0.00000E+00 0.00000E+00
 60.700 1.84345E-11 1.84345E-11 0.00000E+00 0.00000E+00 0.00000E+00
 60.800 5.34283E-12 5.34283E-12 0.00000E+00 0.00000E+00 0.00000E+00
 60.900 1.47530E-12 1.47530E-12 0.00000E+00 0.00000E+00 0.00000E+00
 61.000 3.88272E-13 3.88272E-13 0.00000E+00 0.00000E+00 0.00000E+00
 61.100 9.74252E-14 9.74252E-14 0.00000E+00 0.00000E+00 0.00000E+00
 61.200 2.33156E-14 2.33156E-14 0.00000E+00 0.00000E+00 0.00000E+00
 61.300 5.32506E-15 5.32506E-15 0.00000E+00 0.00000E+00 0.00000E+00
 61.400 1.16119E-15 1.16119E-15 0.00000E+00 0.00000E+00 0.00000E+00
 61.500 2.41948E-16 2.41948E-16 0.00000E+00 0.00000E+00 0.00000E+00
 61.600 4.82022E-17 4.82022E-17 0.00000E+00 0.00000E+00 0.00000E+00
 61.700 9.18887E-18 9.18887E-18 0.00000E+00 0.00000E+00 0.00000E+00
 61.800 1.67778E-18 1.67778E-18 0.00000E+00 0.00000E+00 0.00000E+00
 61.900 2.93640E-19 2.93640E-19 0.00000E+00 0.00000E+00 0.00000E+00
 62.000 4.93118E-20 4.93118E-20 0.00000E+00 0.00000E+00 0.00000E+00
 62.100 7.95205E-21 7.95205E-21 0.00000E+00 0.00000E+00 0.00000E+00
 62.200 1.23225E-21 1.23225E-21 0.00000E+00 0.00000E+00 0.00000E+00
 62.300 1.83630E-22 1.83630E-22 0.00000E+00 0.00000E+00 0.00000E+00
 62.400 2.63228E-23 2.63228E-23 0.00000E+00 0.00000E+00 0.00000E+00
 62.500 3.63099E-24 3.63099E-24 0.00000E+00 0.00000E+00 0.00000E+00
 62.600 4.81926E-25 4.81926E-25 0.00000E+00 0.00000E+00 0.00000E+00
 62.700 6.15255E-26 6.15255E-26 0.00000E+00 0.00000E+00 0.00000E+00
 62.800 7.55297E-27 7.55297E-27 0.00000E+00 0.00000E+00 0.00000E+00
 62.900 8.90892E-28 8.90892E-28 0.00000E+00 0.00000E+00 0.00000E+00
 63.000 1.00907E-28 1.00907E-28 0.00000E+00 0.00000E+00 0.00000E+00
 63.100 1.09652E-29 1.09652E-29 0.00000E+00 0.00000E+00 0.00000E+00
 63.200 1.14208E-30 1.14208E-30 0.00000E+00 0.00000E+00 0.00000E+00
 63.300 1.13940E-31 1.13940E-31 0.00000E+00 0.00000E+00 0.00000E+00
 63.400 1.08776E-32 1.08776E-32 0.00000E+00 0.00000E+00 0.00000E+00
 63.500 9.93166E-34 9.93166E-34 0.00000E+00 0.00000E+00 0.00000E+00
 63.600 8.66600E-35 8.66600E-35 0.00000E+00 0.00000E+00 0.00000E+00
 63.700 7.22148E-36 7.22148E-36 0.00000E+00 0.00000E+00 0.00000E+00
 63.800 5.74523E-37 5.74523E-37 0.00000E+00 0.00000E+00 0.00000E+00
 63.900 4.36101E-38 4.36101E-38 0.00000E+00 0.00000E+00 0.00000E+00
 64.000 3.15786E-39 3.15786E-39 0.00000E+00 0.00000E+00 0.00000E+00
 64.100 2.18043E-40 2.18043E-40 0.00000E+00 0.00000E+00 0.00000E+00
 64.200 1.43521E-41 1.43521E-41 0.00000E+00 0.00000E+00 0.00000E+00
 64.300 9.01035E-43 9.01035E-43 0.00000E+00 0.00000E+00 0.00000E+00
 64.400 5.32493E-44 5.32493E-44 0.00000E+00 0.00000E+00 0.00000E+00
 64.500 2.80260E-45 2.80260E-45 0.00000E+00 0.00000E+00 0.00000E+00
 64.600 0.00000E+00 0.00000E+00 0.00000E+00 0.00000E+00 0.00000E+00
 64.700 0.00000E+00 0.00000E+00 0.00000E+00 0.00000E+00 0.00000E+00
 64.800 0.00000E+00 0.00000E+00 0.00000E+00 0.00000E+00 0.00000E+00
 64.900 0.00000E+00 0.00000E+00 0.00000E+00 0.00000E+00 0.00000E+00
 65.000 0.00000E+00 0.00000E+00 0.00000E+00 0.00000E+00 0.00000E+00
 65.100 0.00000E+00 0.00000E+00 0.00000E+00 0.00000E+00 0.00000E+00
 65.200 0.00000E+00 0.00000E+00 0.00000E+00 0.00000E+00 0.00000E+00
 65.300 0.00000E+00 0.00000E+00 0.00000E+00 0.00000E+00 0.00000E+00
 65.400 0.00000E+00 0.00000E+00 0.00000E+00 0.00000E+00 0.00000E+00
 65.500 0.00000E+00 0.00000E+00 0.00000E+00 0.00000E+00 0.00000E+00
 65.600 0.00000E+00 0.00000E+00 0.00000E+00 0.00000E+00 0.00000E+00
 65.700 0.00000E+00 0.00000E+00 0.00000E+00 0.00000E+00 0.00000E+00
 65.800 0.00000E+00 0.00000E+00 0.00000E+00 0.00000E+00 0.00000E+00
 65.900 0.00000E+00 0.00000E+00 0.00000E+00 0.00000E+00 0.00000E+00
 66.000 0.00000E+00 0.00000E+00 0.00000E+00 0.00000E+00 0.00000E+00
 66.100 0.00000E+00 0.00000E+00 0.00000E+00 0.00000E+00 0.00000E+00
 66.200 0.00000E+00 0.00000E+00 0.00000E+00 0.00000E+00 0.00000E+00
 66.300 0.00000E+00 0.00000E+00 0.00000E+00 0.00000E+00 0.00000E+00
 66.400 0.00000E+00 0.00000E+00 0.00000E+00 0.00000E+00 0.00000E+00
 66.500 0.00000E+00 0.00000E+00 0.00000E+00 0.00000E+00 0.00000E+00
 66.600 0.00000E+00 0.00000E+00 0.00000E+00 0.00000E+00 0.00000E+00
 66.700 0.00000E+00 0.00000E+00 0.00000E+00 0.00000E+00 0.00000E+00
 66.800 0.00000E+00 0.00000E+00 0.00000E+00 0.00000E+00 0.00000E+00
 66.900 0.00000E+00 0.00000E+00 0.00000E+00 0.00000E+00 0.00000E+00
 67.000 0.00000E+00 0.00000E+00 0.00000E+00 0.00000E+00 0.00000E+00
 67.100 0.00000E+00 0.00000E+00 0.00000E+00 0.00000E+00 0.00000E+00
 67.200 0.00000E+00 0.00000E+00 0.00000E+00 0.00000E+00 0.00000E+00
 67.300 0.00000E+00 0.00000E+00 0.00000E+00 0.00000E+00 0.00000E+00
 67.400 0.00000E+00 0.00000E+00 0.00000E+00 0.00000E+00 0.00000E+00
 67.500 0.00000E+00 0.00000E+00 0.00000E+00 0.00000E+00 0.00000E+00
 67.600 0.00000E+00 0.00000E+00 0.00000E+00 0.00000E+00 0.00000E+00
 67.700 0.00000E+00 0.00000E+00 0.00000E+00 0.00000E+00 0.00000E+00
 67.800 0.00000E+00 0.00000E+00 0.00000E+00 0.00000E+00 0.00000E+00
 67.900 0.00000E+00 0.00000E+00 0.00000E+00 0.00000E+00 0.00000E+00
 68.000 0.00000E+00 0.00000E+00 0.00000E+00 0.00000E+00 0.00000E+00
