# n + 209Bi: helium-3 DDX spectrum
# E-incident =  63.000
# Angle      =  70.000
# # energies =223
# E-out    Total       Direct    Pre-equil.  Mult. preeq  Compound
  0.700 0.00000E+00 0.00000E+00 0.00000E+00 0.00000E+00 0.00000E+00
  0.800 0.00000E+00 0.00000E+00 0.00000E+00 0.00000E+00 0.00000E+00
  0.900 0.00000E+00 0.00000E+00 0.00000E+00 0.00000E+00 0.00000E+00
  1.000 0.00000E+00 0.00000E+00 0.00000E+00 0.00000E+00 0.00000E+00
  1.100 0.00000E+00 0.00000E+00 0.00000E+00 0.00000E+00 0.00000E+00
  1.200 0.00000E+00 0.00000E+00 0.00000E+00 0.00000E+00 0.00000E+00
  1.300 0.00000E+00 0.00000E+00 0.00000E+00 0.00000E+00 0.00000E+00
  1.400 0.00000E+00 0.00000E+00 0.00000E+00 0.00000E+00 0.00000E+00
  1.500 0.00000E+00 0.00000E+00 0.00000E+00 0.00000E+00 0.00000E+00
  1.600 0.00000E+00 0.00000E+00 0.00000E+00 0.00000E+00 0.00000E+00
  1.700 0.00000E+00 0.00000E+00 0.00000E+00 0.00000E+00 0.00000E+00
  1.800 0.00000E+00 0.00000E+00 0.00000E+00 0.00000E+00 0.00000E+00
  1.900 0.00000E+00 0.00000E+00 0.00000E+00 0.00000E+00 0.00000E+00
  2.000 0.00000E+00 0.00000E+00 0.00000E+00 0.00000E+00 0.00000E+00
  2.200 0.00000E+00 0.00000E+00 0.00000E+00 0.00000E+00 0.00000E+00
  2.400 2.80260E-45 0.00000E+00 2.80260E-45 0.00000E+00 0.00000E+00
  2.600 1.92118E-42 0.00000E+00 1.92118E-42 0.00000E+00 0.00000E+00
  2.800 6.68637E-40 0.00000E+00 6.68637E-40 0.00000E+00 0.00000E+00
  3.000 1.07368E-36 0.00000E+00 1.07368E-36 0.00000E+00 0.00000E+00
  3.200 1.17969E-34 0.00000E+00 1.17969E-34 0.00000E+00 0.00000E+00
  3.400 8.20304E-33 0.00000E+00 8.20304E-33 0.00000E+00 0.00000E+00
  3.600 3.86655E-31 0.00000E+00 3.86655E-31 0.00000E+00 0.00000E+00
  3.800 1.30048E-29 0.00000E+00 1.30048E-29 0.00000E+00 0.00000E+00
  4.000 3.25877E-28 0.00000E+00 3.25877E-28 0.00000E+00 0.00000E+00
  4.500 3.51737E-25 0.00000E+00 3.51737E-25 0.00000E+00 0.00000E+00
  5.000 1.13006E-22 0.00000E+00 1.13006E-22 0.00000E+00 0.00000E+00
  5.500 1.43720E-20 0.00000E+00 1.43720E-20 0.00000E+00 0.00000E+00
  6.000 8.85089E-19 0.00000E+00 8.85089E-19 0.00000E+00 0.00000E+00
  6.500 3.05750E-17 0.00000E+00 3.05750E-17 0.00000E+00 0.00000E+00
  7.000 6.61763E-16 0.00000E+00 6.61763E-16 0.00000E+00 0.00000E+00
  7.500 9.77383E-15 0.00000E+00 9.77383E-15 0.00000E+00 0.00000E+00
  8.000 1.05299E-13 0.00000E+00 1.05299E-13 0.00000E+00 0.00000E+00
  8.500 8.72561E-13 0.00000E+00 8.72561E-13 0.00000E+00 0.00000E+00
  9.000 5.80211E-12 0.00000E+00 5.80211E-12 0.00000E+00 0.00000E+00
  9.500 3.20273E-11 0.00000E+00 3.20273E-11 0.00000E+00 0.00000E+00
 10.000 1.55024E-10 0.00000E+00 1.50842E-10 0.00000E+00 4.18246E-12
 10.500 8.26707E-10 0.00000E+00 6.19756E-10 0.00000E+00 2.06950E-10
 11.000 3.37581E-09 0.00000E+00 2.26231E-09 0.00000E+00 1.11350E-09
 11.500 9.71109E-09 0.00000E+00 7.44848E-09 0.00000E+00 2.26261E-09
 12.000 2.71007E-08 0.00000E+00 2.24020E-08 0.00000E+00 4.69864E-09
 12.500 7.23212E-08 0.00000E+00 6.22202E-08 0.00000E+00 1.01010E-08
 13.000 1.77302E-07 0.00000E+00 1.61073E-07 0.00000E+00 1.62294E-08
 13.500 4.18875E-07 0.00000E+00 3.91795E-07 0.00000E+00 2.70800E-08
 14.000 9.45496E-07 0.00000E+00 9.01609E-07 0.00000E+00 4.38876E-08
 14.500 2.03552E-06 0.00000E+00 1.97444E-06 0.00000E+00 6.10849E-08
 15.000 4.22276E-06 0.00000E+00 4.13505E-06 0.00000E+00 8.77047E-08
 15.500 8.43559E-06 0.00000E+00 8.31527E-06 0.00000E+00 1.20324E-07
 16.000 1.62620E-05 0.00000E+00 1.61084E-05 0.00000E+00 1.53617E-07
 16.500 3.03333E-05 0.00000E+00 3.01357E-05 0.00000E+00 1.97588E-07
 17.000 5.47865E-05 0.00000E+00 5.45440E-05 0.00000E+00 2.42485E-07
 17.500 9.58951E-05 0.00000E+00 9.56074E-05 0.00000E+00 2.87741E-07
 18.000 1.62668E-04 0.00000E+00 1.62337E-04 0.00000E+00 3.31386E-07
 18.500 2.67222E-04 0.00000E+00 2.66850E-04 0.00000E+00 3.72123E-07
 19.000 4.24431E-04 0.00000E+00 4.24028E-04 0.00000E+00 4.03079E-07
 19.500 6.50292E-04 0.00000E+00 6.49879E-04 0.00000E+00 4.12722E-07
 20.000 9.58593E-04 0.00000E+00 9.58174E-04 0.00000E+00 4.19588E-07
 21.000 1.83993E-03 0.00000E+00 1.83956E-03 0.00000E+00 3.68202E-07
 22.000 2.99711E-03 0.00000E+00 2.99683E-03 0.00000E+00 2.84757E-07
 23.000 4.24774E-03 0.00000E+00 4.24756E-03 0.00000E+00 1.83430E-07
 24.000 5.41843E-03 0.00000E+00 5.41832E-03 0.00000E+00 1.10958E-07
 25.000 6.36972E-03 0.00000E+00 6.36966E-03 0.00000E+00 5.99575E-08
 26.000 7.10838E-03 0.00000E+00 7.10835E-03 0.00000E+00 2.85648E-08
 27.000 7.63814E-03 0.00000E+00 7.63813E-03 0.00000E+00 1.42387E-08
 28.000 7.97592E-03 0.00000E+00 7.97591E-03 0.00000E+00 6.82828E-09
 29.000 8.14426E-03 0.00000E+00 8.14426E-03 0.00000E+00 2.89288E-09
 30.000 8.16709E-03 0.00000E+00 8.16709E-03 0.00000E+00 1.16428E-09
 31.000 8.06772E-03 0.00000E+00 8.06772E-03 0.00000E+00 5.63969E-10
 32.000 7.86794E-03 0.00000E+00 7.86794E-03 0.00000E+00 2.29298E-10
 33.000 7.58746E-03 0.00000E+00 7.58746E-03 0.00000E+00 0.00000E+00
 34.000 7.24377E-03 0.00000E+00 7.24377E-03 0.00000E+00 0.00000E+00
 35.000 6.85263E-03 0.00000E+00 6.85263E-03 0.00000E+00 0.00000E+00
 36.000 6.42769E-03 0.00000E+00 6.42769E-03 0.00000E+00 0.00000E+00
 37.000 5.98107E-03 0.00000E+00 5.98107E-03 0.00000E+00 0.00000E+00
 38.000 5.52331E-03 0.00000E+00 5.52331E-03 0.00000E+00 0.00000E+00
 39.000 5.06325E-03 0.00000E+00 5.06325E-03 0.00000E+00 0.00000E+00
 40.000 4.60837E-03 0.00000E+00 4.60837E-03 0.00000E+00 0.00000E+00
 42.000 3.73748E-03 0.00000E+00 3.73748E-03 0.00000E+00 0.00000E+00
 44.000 2.94537E-03 0.00000E+00 2.94537E-03 0.00000E+00 0.00000E+00
 46.000 2.25082E-03 0.00000E+00 2.25082E-03 0.00000E+00 0.00000E+00
 48.000 1.65973E-03 0.00000E+00 1.65973E-03 0.00000E+00 0.00000E+00
 50.000 1.16857E-03 0.00000E+00 1.16857E-03 0.00000E+00 0.00000E+00
 52.000 7.67498E-04 0.00000E+00 7.67498E-04 0.00000E+00 0.00000E+00
 54.000 4.43248E-04 0.00000E+00 4.43248E-04 0.00000E+00 0.00000E+00
 54.100 4.25155E-04 1.21212E-08 4.25143E-04 0.00000E+00 0.00000E+00
 54.200 4.07070E-04 3.29562E-08 4.07037E-04 0.00000E+00 0.00000E+00
 54.300 3.89017E-04 8.46947E-08 3.88932E-04 0.00000E+00 0.00000E+00
 54.400 3.71032E-04 2.05747E-07 3.70826E-04 0.00000E+00 0.00000E+00
 54.500 3.53193E-04 4.72434E-07 3.52721E-04 0.00000E+00 0.00000E+00
 54.600 3.35641E-04 1.02540E-06 3.34616E-04 0.00000E+00 0.00000E+00
 54.700 3.18614E-04 2.10382E-06 3.16510E-04 0.00000E+00 0.00000E+00
 54.800 3.02485E-04 4.08005E-06 2.98405E-04 0.00000E+00 0.00000E+00
 54.900 2.87779E-04 7.47985E-06 2.80299E-04 0.00000E+00 0.00000E+00
 55.000 2.75157E-04 1.29624E-05 2.62194E-04 0.00000E+00 0.00000E+00
 55.100 2.65326E-04 2.12361E-05 2.44089E-04 0.00000E+00 0.00000E+00
 55.200 2.58877E-04 3.28932E-05 2.25984E-04 0.00000E+00 0.00000E+00
 55.300 2.56055E-04 4.81760E-05 2.07879E-04 0.00000E+00 0.00000E+00
 55.400 2.56510E-04 6.67375E-05 1.89773E-04 0.00000E+00 0.00000E+00
 55.500 2.59147E-04 8.74793E-05 1.71668E-04 0.00000E+00 0.00000E+00
 55.600 2.62148E-04 1.08585E-04 1.53563E-04 0.00000E+00 0.00000E+00
 55.700 2.63256E-04 1.27799E-04 1.35457E-04 0.00000E+00 0.00000E+00
 55.800 2.60289E-04 1.42937E-04 1.17352E-04 0.00000E+00 0.00000E+00
 55.900 2.51742E-04 1.52496E-04 9.92463E-05 0.00000E+00 0.00000E+00
 56.000 2.37305E-04 1.56164E-04 8.11412E-05 0.00000E+00 0.00000E+00
 56.100 2.32111E-04 1.55027E-04 7.70842E-05 0.00000E+00 0.00000E+00
 56.200 2.24388E-04 1.51361E-04 7.30271E-05 0.00000E+00 0.00000E+00
 56.300 2.17016E-04 1.48046E-04 6.89701E-05 0.00000E+00 0.00000E+00
 56.400 2.12678E-04 1.47765E-04 6.49129E-05 0.00000E+00 0.00000E+00
 56.500 2.13103E-04 1.52247E-04 6.08559E-05 0.00000E+00 0.00000E+00
 56.600 2.18570E-04 1.61771E-04 5.67989E-05 0.00000E+00 0.00000E+00
 56.700 2.27821E-04 1.75080E-04 5.27418E-05 0.00000E+00 0.00000E+00
 56.800 2.38387E-04 1.89702E-04 4.86848E-05 0.00000E+00 0.00000E+00
 56.900 2.47211E-04 2.02583E-04 4.46276E-05 0.00000E+00 0.00000E+00
 57.000 2.51396E-04 2.10826E-04 4.05706E-05 0.00000E+00 0.00000E+00
 57.100 2.48872E-04 2.12359E-04 3.65136E-05 0.00000E+00 0.00000E+00
 57.200 2.38827E-04 2.06371E-04 3.24565E-05 0.00000E+00 0.00000E+00
 57.300 2.21824E-04 1.93424E-04 2.83995E-05 0.00000E+00 0.00000E+00
 57.400 1.99592E-04 1.75250E-04 2.43423E-05 0.00000E+00 0.00000E+00
 57.500 1.74581E-04 1.54296E-04 2.02853E-05 0.00000E+00 0.00000E+00
 57.600 1.49381E-04 1.33153E-04 1.62283E-05 0.00000E+00 0.00000E+00
 57.700 1.26182E-04 1.14010E-04 1.21712E-05 0.00000E+00 0.00000E+00
 57.800 1.06381E-04 9.82664E-05 8.11416E-06 0.00000E+00 0.00000E+00
 57.900 9.04170E-05 8.63600E-05 4.05700E-06 0.00000E+00 0.00000E+00
 58.000 7.78600E-05 7.78600E-05 0.00000E+00 0.00000E+00 0.00000E+00
 58.100 7.17357E-05 7.17357E-05 0.00000E+00 0.00000E+00 0.00000E+00
 58.200 6.67310E-05 6.67310E-05 0.00000E+00 0.00000E+00 0.00000E+00
 58.300 6.17227E-05 6.17227E-05 0.00000E+00 0.00000E+00 0.00000E+00
 58.400 5.59733E-05 5.59733E-05 0.00000E+00 0.00000E+00 0.00000E+00
 58.500 4.92341E-05 4.92341E-05 0.00000E+00 0.00000E+00 0.00000E+00
 58.600 4.16961E-05 4.16961E-05 0.00000E+00 0.00000E+00 0.00000E+00
 58.700 3.38383E-05 3.38383E-05 0.00000E+00 0.00000E+00 0.00000E+00
 58.800 2.62390E-05 2.62390E-05 0.00000E+00 0.00000E+00 0.00000E+00
 58.900 1.94062E-05 1.94062E-05 0.00000E+00 0.00000E+00 0.00000E+00
 59.000 1.36756E-05 1.36756E-05 0.00000E+00 0.00000E+00 0.00000E+00
 59.100 9.17697E-06 9.17697E-06 0.00000E+00 0.00000E+00 0.00000E+00
 59.200 5.86189E-06 5.86189E-06 0.00000E+00 0.00000E+00 0.00000E+00
 59.300 3.56360E-06 3.56360E-06 0.00000E+00 0.00000E+00 0.00000E+00
 59.400 2.06154E-06 2.06154E-06 0.00000E+00 0.00000E+00 0.00000E+00
 59.500 1.13485E-06 1.13485E-06 0.00000E+00 0.00000E+00 0.00000E+00
 59.600 5.94447E-07 5.94447E-07 0.00000E+00 0.00000E+00 0.00000E+00
 59.700 2.96281E-07 2.96281E-07 0.00000E+00 0.00000E+00 0.00000E+00
 59.800 1.40521E-07 1.40521E-07 0.00000E+00 0.00000E+00 0.00000E+00
 59.900 6.34184E-08 6.34184E-08 0.00000E+00 0.00000E+00 0.00000E+00
 60.000 2.72375E-08 2.72375E-08 0.00000E+00 0.00000E+00 0.00000E+00
 60.100 1.11330E-08 1.11330E-08 0.00000E+00 0.00000E+00 0.00000E+00
 60.200 4.33067E-09 4.33067E-09 0.00000E+00 0.00000E+00 0.00000E+00
 60.300 1.60350E-09 1.60350E-09 0.00000E+00 0.00000E+00 0.00000E+00
 60.400 5.65148E-10 5.65148E-10 0.00000E+00 0.00000E+00 0.00000E+00
 60.500 1.89636E-10 1.89636E-10 0.00000E+00 0.00000E+00 0.00000E+00
 60.600 6.05888E-11 6.05888E-11 0.00000E+00 0.00000E+00 0.00000E+00
 60.700 1.84346E-11 1.84346E-11 0.00000E+00 0.00000E+00 0.00000E+00
 60.800 5.34286E-12 5.34286E-12 0.00000E+00 0.00000E+00 0.00000E+00
 60.900 1.47532E-12 1.47532E-12 0.00000E+00 0.00000E+00 0.00000E+00
 61.000 3.88276E-13 3.88276E-13 0.00000E+00 0.00000E+00 0.00000E+00
 61.100 9.74262E-14 9.74262E-14 0.00000E+00 0.00000E+00 0.00000E+00
 61.200 2.33159E-14 2.33159E-14 0.00000E+00 0.00000E+00 0.00000E+00
 61.300 5.32514E-15 5.32514E-15 0.00000E+00 0.00000E+00 0.00000E+00
 61.400 1.16121E-15 1.16121E-15 0.00000E+00 0.00000E+00 0.00000E+00
 61.500 2.41953E-16 2.41953E-16 0.00000E+00 0.00000E+00 0.00000E+00
 61.600 4.82034E-17 4.82034E-17 0.00000E+00 0.00000E+00 0.00000E+00
 61.700 9.18913E-18 9.18913E-18 0.00000E+00 0.00000E+00 0.00000E+00
 61.800 1.67783E-18 1.67783E-18 0.00000E+00 0.00000E+00 0.00000E+00
 61.900 2.93652E-19 2.93652E-19 0.00000E+00 0.00000E+00 0.00000E+00
 62.000 4.93140E-20 4.93140E-20 0.00000E+00 0.00000E+00 0.00000E+00
 62.100 7.95246E-21 7.95246E-21 0.00000E+00 0.00000E+00 0.00000E+00
 62.200 1.23233E-21 1.23233E-21 0.00000E+00 0.00000E+00 0.00000E+00
 62.300 1.83642E-22 1.83642E-22 0.00000E+00 0.00000E+00 0.00000E+00
 62.400 2.63247E-23 2.63247E-23 0.00000E+00 0.00000E+00 0.00000E+00
 62.500 3.63128E-24 3.63128E-24 0.00000E+00 0.00000E+00 0.00000E+00
 62.600 4.81968E-25 4.81968E-25 0.00000E+00 0.00000E+00 0.00000E+00
 62.700 6.15313E-26 6.15313E-26 0.00000E+00 0.00000E+00 0.00000E+00
 62.800 7.55372E-27 7.55372E-27 0.00000E+00 0.00000E+00 0.00000E+00
 62.900 8.90987E-28 8.90987E-28 0.00000E+00 0.00000E+00 0.00000E+00
 63.000 1.00918E-28 1.00918E-28 0.00000E+00 0.00000E+00 0.00000E+00
 63.100 1.09664E-29 1.09664E-29 0.00000E+00 0.00000E+00 0.00000E+00
 63.200 1.14222E-30 1.14222E-30 0.00000E+00 0.00000E+00 0.00000E+00
 63.300 1.13954E-31 1.13954E-31 0.00000E+00 0.00000E+00 0.00000E+00
 63.400 1.08790E-32 1.08790E-32 0.00000E+00 0.00000E+00 0.00000E+00
 63.500 9.93295E-34 9.93295E-34 0.00000E+00 0.00000E+00 0.00000E+00
 63.600 8.66714E-35 8.66714E-35 0.00000E+00 0.00000E+00 0.00000E+00
 63.700 7.22245E-36 7.22245E-36 0.00000E+00 0.00000E+00 0.00000E+00
 63.800 5.74600E-37 5.74600E-37 0.00000E+00 0.00000E+00 0.00000E+00
 63.900 4.36161E-38 4.36161E-38 0.00000E+00 0.00000E+00 0.00000E+00
 64.000 3.15829E-39 3.15829E-39 0.00000E+00 0.00000E+00 0.00000E+00
 64.100 2.18074E-40 2.18074E-40 0.00000E+00 0.00000E+00 0.00000E+00
 64.200 1.43535E-41 1.43535E-41 0.00000E+00 0.00000E+00 0.00000E+00
 64.300 9.01035E-43 9.01035E-43 0.00000E+00 0.00000E+00 0.00000E+00
 64.400 5.32493E-44 5.32493E-44 0.00000E+00 0.00000E+00 0.00000E+00
 64.500 2.80260E-45 2.80260E-45 0.00000E+00 0.00000E+00 0.00000E+00
 64.600 0.00000E+00 0.00000E+00 0.00000E+00 0.00000E+00 0.00000E+00
 64.700 0.00000E+00 0.00000E+00 0.00000E+00 0.00000E+00 0.00000E+00
 64.800 0.00000E+00 0.00000E+00 0.00000E+00 0.00000E+00 0.00000E+00
 64.900 0.00000E+00 0.00000E+00 0.00000E+00 0.00000E+00 0.00000E+00
 65.000 0.00000E+00 0.00000E+00 0.00000E+00 0.00000E+00 0.00000E+00
 65.100 0.00000E+00 0.00000E+00 0.00000E+00 0.00000E+00 0.00000E+00
 65.200 0.00000E+00 0.00000E+00 0.00000E+00 0.00000E+00 0.00000E+00
 65.300 0.00000E+00 0.00000E+00 0.00000E+00 0.00000E+00 0.00000E+00
 65.400 0.00000E+00 0.00000E+00 0.00000E+00 0.00000E+00 0.00000E+00
 65.500 0.00000E+00 0.00000E+00 0.00000E+00 0.00000E+00 0.00000E+00
 65.600 0.00000E+00 0.00000E+00 0.00000E+00 0.00000E+00 0.00000E+00
 65.700 0.00000E+00 0.00000E+00 0.00000E+00 0.00000E+00 0.00000E+00
 65.800 0.00000E+00 0.00000E+00 0.00000E+00 0.00000E+00 0.00000E+00
 65.900 0.00000E+00 0.00000E+00 0.00000E+00 0.00000E+00 0.00000E+00
 66.000 0.00000E+00 0.00000E+00 0.00000E+00 0.00000E+00 0.00000E+00
 66.100 0.00000E+00 0.00000E+00 0.00000E+00 0.00000E+00 0.00000E+00
 66.200 0.00000E+00 0.00000E+00 0.00000E+00 0.00000E+00 0.00000E+00
 66.300 0.00000E+00 0.00000E+00 0.00000E+00 0.00000E+00 0.00000E+00
 66.400 0.00000E+00 0.00000E+00 0.00000E+00 0.00000E+00 0.00000E+00
 66.500 0.00000E+00 0.00000E+00 0.00000E+00 0.00000E+00 0.00000E+00
 66.600 0.00000E+00 0.00000E+00 0.00000E+00 0.00000E+00 0.00000E+00
 66.700 0.00000E+00 0.00000E+00 0.00000E+00 0.00000E+00 0.00000E+00
 66.800 0.00000E+00 0.00000E+00 0.00000E+00 0.00000E+00 0.00000E+00
 66.900 0.00000E+00 0.00000E+00 0.00000E+00 0.00000E+00 0.00000E+00
 67.000 0.00000E+00 0.00000E+00 0.00000E+00 0.00000E+00 0.00000E+00
 67.100 0.00000E+00 0.00000E+00 0.00000E+00 0.00000E+00 0.00000E+00
 67.200 0.00000E+00 0.00000E+00 0.00000E+00 0.00000E+00 0.00000E+00
 67.300 0.00000E+00 0.00000E+00 0.00000E+00 0.00000E+00 0.00000E+00
 67.400 0.00000E+00 0.00000E+00 0.00000E+00 0.00000E+00 0.00000E+00
 67.500 0.00000E+00 0.00000E+00 0.00000E+00 0.00000E+00 0.00000E+00
 67.600 0.00000E+00 0.00000E+00 0.00000E+00 0.00000E+00 0.00000E+00
 67.700 0.00000E+00 0.00000E+00 0.00000E+00 0.00000E+00 0.00000E+00
 67.800 0.00000E+00 0.00000E+00 0.00000E+00 0.00000E+00 0.00000E+00
 67.900 0.00000E+00 0.00000E+00 0.00000E+00 0.00000E+00 0.00000E+00
 68.000 0.00000E+00 0.00000E+00 0.00000E+00 0.00000E+00 0.00000E+00
