# n + 209Bi: helium-3 DDX spectrum
# E-incident =  63.000
# Angle      =  20.000
# # energies =223
# E-out    Total       Direct    Pre-equil.  Mult. preeq  Compound
  0.700 0.00000E+00 0.00000E+00 0.00000E+00 0.00000E+00 0.00000E+00
  0.800 0.00000E+00 0.00000E+00 0.00000E+00 0.00000E+00 0.00000E+00
  0.900 0.00000E+00 0.00000E+00 0.00000E+00 0.00000E+00 0.00000E+00
  1.000 0.00000E+00 0.00000E+00 0.00000E+00 0.00000E+00 0.00000E+00
  1.100 0.00000E+00 0.00000E+00 0.00000E+00 0.00000E+00 0.00000E+00
  1.200 0.00000E+00 0.00000E+00 0.00000E+00 0.00000E+00 0.00000E+00
  1.300 0.00000E+00 0.00000E+00 0.00000E+00 0.00000E+00 0.00000E+00
  1.400 0.00000E+00 0.00000E+00 0.00000E+00 0.00000E+00 0.00000E+00
  1.500 0.00000E+00 0.00000E+00 0.00000E+00 0.00000E+00 0.00000E+00
  1.600 0.00000E+00 0.00000E+00 0.00000E+00 0.00000E+00 0.00000E+00
  1.700 0.00000E+00 0.00000E+00 0.00000E+00 0.00000E+00 0.00000E+00
  1.800 0.00000E+00 0.00000E+00 0.00000E+00 0.00000E+00 0.00000E+00
  1.900 0.00000E+00 0.00000E+00 0.00000E+00 0.00000E+00 0.00000E+00
  2.000 0.00000E+00 0.00000E+00 0.00000E+00 0.00000E+00 0.00000E+00
  2.200 0.00000E+00 0.00000E+00 0.00000E+00 0.00000E+00 0.00000E+00
  2.400 2.80260E-45 0.00000E+00 2.80260E-45 0.00000E+00 0.00000E+00
  2.600 2.67508E-42 0.00000E+00 2.67508E-42 0.00000E+00 0.00000E+00
  2.800 9.35455E-40 0.00000E+00 9.35455E-40 0.00000E+00 0.00000E+00
  3.000 1.50968E-36 0.00000E+00 1.50968E-36 0.00000E+00 0.00000E+00
  3.200 1.66709E-34 0.00000E+00 1.66709E-34 0.00000E+00 0.00000E+00
  3.400 1.16507E-32 0.00000E+00 1.16507E-32 0.00000E+00 0.00000E+00
  3.600 5.51935E-31 0.00000E+00 5.51935E-31 0.00000E+00 0.00000E+00
  3.800 1.86578E-29 0.00000E+00 1.86578E-29 0.00000E+00 0.00000E+00
  4.000 4.69899E-28 0.00000E+00 4.69899E-28 0.00000E+00 0.00000E+00
  4.500 5.13664E-25 0.00000E+00 5.13664E-25 0.00000E+00 0.00000E+00
  5.000 1.67146E-22 0.00000E+00 1.67146E-22 0.00000E+00 0.00000E+00
  5.500 2.15316E-20 0.00000E+00 2.15316E-20 0.00000E+00 0.00000E+00
  6.000 1.34319E-18 0.00000E+00 1.34319E-18 0.00000E+00 0.00000E+00
  6.500 4.70043E-17 0.00000E+00 4.70043E-17 0.00000E+00 0.00000E+00
  7.000 1.03069E-15 0.00000E+00 1.03069E-15 0.00000E+00 0.00000E+00
  7.500 1.54234E-14 0.00000E+00 1.54234E-14 0.00000E+00 0.00000E+00
  8.000 1.68361E-13 0.00000E+00 1.68361E-13 0.00000E+00 0.00000E+00
  8.500 1.41381E-12 0.00000E+00 1.41381E-12 0.00000E+00 0.00000E+00
  9.000 9.52751E-12 0.00000E+00 9.52751E-12 0.00000E+00 0.00000E+00
  9.500 5.33029E-11 0.00000E+00 5.33029E-11 0.00000E+00 0.00000E+00
 10.000 2.58649E-10 0.00000E+00 2.54467E-10 0.00000E+00 4.18189E-12
 10.500 1.26679E-09 0.00000E+00 1.05987E-09 0.00000E+00 2.06918E-10
 11.000 5.03570E-09 0.00000E+00 3.92238E-09 0.00000E+00 1.11332E-09
 11.500 1.53564E-08 0.00000E+00 1.30942E-08 0.00000E+00 2.26226E-09
 12.000 4.46334E-08 0.00000E+00 3.99355E-08 0.00000E+00 4.69791E-09
 12.500 1.22590E-07 0.00000E+00 1.12490E-07 0.00000E+00 1.00995E-08
 13.000 3.11599E-07 0.00000E+00 2.95372E-07 0.00000E+00 1.62269E-08
 13.500 7.55900E-07 0.00000E+00 7.28824E-07 0.00000E+00 2.70758E-08
 14.000 1.74547E-06 0.00000E+00 1.70159E-06 0.00000E+00 4.38808E-08
 14.500 3.84211E-06 0.00000E+00 3.78104E-06 0.00000E+00 6.10754E-08
 15.000 8.12368E-06 0.00000E+00 8.03599E-06 0.00000E+00 8.76910E-08
 15.500 1.65219E-05 0.00000E+00 1.64016E-05 0.00000E+00 1.20305E-07
 16.000 3.24072E-05 0.00000E+00 3.22536E-05 0.00000E+00 1.53593E-07
 16.500 6.14594E-05 0.00000E+00 6.12619E-05 0.00000E+00 1.97557E-07
 17.000 1.12834E-04 0.00000E+00 1.12591E-04 0.00000E+00 2.42447E-07
 17.500 2.00721E-04 0.00000E+00 2.00433E-04 0.00000E+00 2.87695E-07
 18.000 3.46021E-04 0.00000E+00 3.45689E-04 0.00000E+00 3.31333E-07
 18.500 5.77674E-04 0.00000E+00 5.77302E-04 0.00000E+00 3.72064E-07
 19.000 9.32524E-04 0.00000E+00 9.32121E-04 0.00000E+00 4.03014E-07
 19.500 1.45230E-03 0.00000E+00 1.45188E-03 0.00000E+00 4.12655E-07
 20.000 2.17636E-03 0.00000E+00 2.17594E-03 0.00000E+00 4.19520E-07
 21.000 4.31928E-03 0.00000E+00 4.31891E-03 0.00000E+00 3.68142E-07
 22.000 7.28031E-03 0.00000E+00 7.28003E-03 0.00000E+00 2.84710E-07
 23.000 1.06856E-02 0.00000E+00 1.06855E-02 0.00000E+00 1.83399E-07
 24.000 1.41285E-02 0.00000E+00 1.41284E-02 0.00000E+00 1.10939E-07
 25.000 1.72320E-02 0.00000E+00 1.72319E-02 0.00000E+00 5.99475E-08
 26.000 1.99714E-02 0.00000E+00 1.99714E-02 0.00000E+00 2.85600E-08
 27.000 2.23102E-02 0.00000E+00 2.23102E-02 0.00000E+00 1.42363E-08
 28.000 2.42466E-02 0.00000E+00 2.42466E-02 0.00000E+00 6.82715E-09
 29.000 2.57974E-02 0.00000E+00 2.57974E-02 0.00000E+00 2.89240E-09
 30.000 2.69878E-02 0.00000E+00 2.69878E-02 0.00000E+00 1.16408E-09
 31.000 2.78468E-02 0.00000E+00 2.78468E-02 0.00000E+00 5.63875E-10
 32.000 2.84039E-02 0.00000E+00 2.84039E-02 0.00000E+00 2.29260E-10
 33.000 2.86881E-02 0.00000E+00 2.86881E-02 0.00000E+00 0.00000E+00
 34.000 2.87263E-02 0.00000E+00 2.87263E-02 0.00000E+00 0.00000E+00
 35.000 2.85448E-02 0.00000E+00 2.85448E-02 0.00000E+00 0.00000E+00
 36.000 2.81676E-02 0.00000E+00 2.81676E-02 0.00000E+00 0.00000E+00
 37.000 2.76184E-02 0.00000E+00 2.76184E-02 0.00000E+00 0.00000E+00
 38.000 2.69197E-02 0.00000E+00 2.69197E-02 0.00000E+00 0.00000E+00
 39.000 2.60918E-02 0.00000E+00 2.60918E-02 0.00000E+00 0.00000E+00
 40.000 2.51540E-02 0.00000E+00 2.51540E-02 0.00000E+00 0.00000E+00
 42.000 2.30180E-02 0.00000E+00 2.30180E-02 0.00000E+00 0.00000E+00
 44.000 2.06317E-02 0.00000E+00 2.06317E-02 0.00000E+00 0.00000E+00
 46.000 1.80868E-02 0.00000E+00 1.80868E-02 0.00000E+00 0.00000E+00
 48.000 1.54403E-02 0.00000E+00 1.54403E-02 0.00000E+00 0.00000E+00
 50.000 1.27088E-02 0.00000E+00 1.27088E-02 0.00000E+00 0.00000E+00
 52.000 9.85963E-03 0.00000E+00 9.85963E-03 0.00000E+00 0.00000E+00
 54.000 6.80046E-03 0.00000E+00 6.80046E-03 0.00000E+00 0.00000E+00
 54.100 6.53588E-03 2.22383E-07 6.53565E-03 0.00000E+00 0.00000E+00
 54.200 6.27144E-03 6.04637E-07 6.27084E-03 0.00000E+00 0.00000E+00
 54.300 6.00758E-03 1.55387E-06 6.00603E-03 0.00000E+00 0.00000E+00
 54.400 5.74498E-03 3.77477E-06 5.74121E-03 0.00000E+00 0.00000E+00
 54.500 5.48507E-03 8.66759E-06 5.47640E-03 0.00000E+00 0.00000E+00
 54.600 5.23040E-03 1.88127E-05 5.21159E-03 0.00000E+00 0.00000E+00
 54.700 4.98537E-03 3.85982E-05 4.94677E-03 0.00000E+00 0.00000E+00
 54.800 4.75681E-03 7.48554E-05 4.68196E-03 0.00000E+00 0.00000E+00
 54.900 4.55437E-03 1.37230E-04 4.41714E-03 0.00000E+00 0.00000E+00
 55.000 4.39015E-03 2.37817E-04 4.15233E-03 0.00000E+00 0.00000E+00
 55.100 4.27713E-03 3.89612E-04 3.88752E-03 0.00000E+00 0.00000E+00
 55.200 4.22618E-03 6.03482E-04 3.62270E-03 0.00000E+00 0.00000E+00
 55.300 4.24176E-03 8.83869E-04 3.35789E-03 0.00000E+00 0.00000E+00
 55.400 4.31749E-03 1.22441E-03 3.09307E-03 0.00000E+00 0.00000E+00
 55.500 4.43322E-03 1.60496E-03 2.82826E-03 0.00000E+00 0.00000E+00
 55.600 4.55563E-03 1.99217E-03 2.56345E-03 0.00000E+00 0.00000E+00
 55.700 4.64333E-03 2.34469E-03 2.29863E-03 0.00000E+00 0.00000E+00
 55.800 4.65625E-03 2.62242E-03 2.03383E-03 0.00000E+00 0.00000E+00
 55.900 4.56680E-03 2.79780E-03 1.76901E-03 0.00000E+00 0.00000E+00
 56.000 4.36929E-03 2.86509E-03 1.50420E-03 0.00000E+00 0.00000E+00
 56.100 4.27322E-03 2.84423E-03 1.42899E-03 0.00000E+00 0.00000E+00
 56.200 4.13075E-03 2.77697E-03 1.35378E-03 0.00000E+00 0.00000E+00
 56.300 3.99471E-03 2.71614E-03 1.27857E-03 0.00000E+00 0.00000E+00
 56.400 3.91436E-03 2.71100E-03 1.20336E-03 0.00000E+00 0.00000E+00
 56.500 3.92138E-03 2.79323E-03 1.12815E-03 0.00000E+00 0.00000E+00
 56.600 4.02090E-03 2.96797E-03 1.05294E-03 0.00000E+00 0.00000E+00
 56.700 4.18986E-03 3.21213E-03 9.77727E-04 0.00000E+00 0.00000E+00
 56.800 4.38292E-03 3.48040E-03 9.02518E-04 0.00000E+00 0.00000E+00
 56.900 4.54404E-03 3.71673E-03 8.27307E-04 0.00000E+00 0.00000E+00
 57.000 4.62005E-03 3.86795E-03 7.52098E-04 0.00000E+00 0.00000E+00
 57.100 4.57297E-03 3.89608E-03 6.76890E-04 0.00000E+00 0.00000E+00
 57.200 4.38789E-03 3.78622E-03 6.01678E-04 0.00000E+00 0.00000E+00
 57.300 4.07516E-03 3.54869E-03 5.26469E-04 0.00000E+00 0.00000E+00
 57.400 3.66651E-03 3.21525E-03 4.51258E-04 0.00000E+00 0.00000E+00
 57.500 3.20687E-03 2.83082E-03 3.76049E-04 0.00000E+00 0.00000E+00
 57.600 2.74375E-03 2.44291E-03 3.00840E-04 0.00000E+00 0.00000E+00
 57.700 2.31734E-03 2.09171E-03 2.25629E-04 0.00000E+00 0.00000E+00
 57.800 1.95328E-03 1.80286E-03 1.50420E-04 0.00000E+00 0.00000E+00
 57.900 1.65963E-03 1.58442E-03 7.52087E-05 0.00000E+00 0.00000E+00
 58.000 1.42847E-03 1.42847E-03 0.00000E+00 0.00000E+00 0.00000E+00
 58.100 1.31611E-03 1.31611E-03 0.00000E+00 0.00000E+00 0.00000E+00
 58.200 1.22429E-03 1.22429E-03 0.00000E+00 0.00000E+00 0.00000E+00
 58.300 1.13241E-03 1.13241E-03 0.00000E+00 0.00000E+00 0.00000E+00
 58.400 1.02692E-03 1.02692E-03 0.00000E+00 0.00000E+00 0.00000E+00
 58.500 9.03282E-04 9.03282E-04 0.00000E+00 0.00000E+00 0.00000E+00
 58.600 7.64984E-04 7.64984E-04 0.00000E+00 0.00000E+00 0.00000E+00
 58.700 6.20821E-04 6.20821E-04 0.00000E+00 0.00000E+00 0.00000E+00
 58.800 4.81398E-04 4.81398E-04 0.00000E+00 0.00000E+00 0.00000E+00
 58.900 3.56039E-04 3.56039E-04 0.00000E+00 0.00000E+00 0.00000E+00
 59.000 2.50902E-04 2.50902E-04 0.00000E+00 0.00000E+00 0.00000E+00
 59.100 1.68367E-04 1.68367E-04 0.00000E+00 0.00000E+00 0.00000E+00
 59.200 1.07546E-04 1.07546E-04 0.00000E+00 0.00000E+00 0.00000E+00
 59.300 6.53802E-05 6.53802E-05 0.00000E+00 0.00000E+00 0.00000E+00
 59.400 3.78223E-05 3.78223E-05 0.00000E+00 0.00000E+00 0.00000E+00
 59.500 2.08207E-05 2.08207E-05 0.00000E+00 0.00000E+00 0.00000E+00
 59.600 1.09061E-05 1.09061E-05 0.00000E+00 0.00000E+00 0.00000E+00
 59.700 5.43577E-06 5.43577E-06 0.00000E+00 0.00000E+00 0.00000E+00
 59.800 2.57810E-06 2.57810E-06 0.00000E+00 0.00000E+00 0.00000E+00
 59.900 1.16352E-06 1.16352E-06 0.00000E+00 0.00000E+00 0.00000E+00
 60.000 4.99718E-07 4.99718E-07 0.00000E+00 0.00000E+00 0.00000E+00
 60.100 2.04252E-07 2.04252E-07 0.00000E+00 0.00000E+00 0.00000E+00
 60.200 7.94533E-08 7.94533E-08 0.00000E+00 0.00000E+00 0.00000E+00
 60.300 2.94188E-08 2.94188E-08 0.00000E+00 0.00000E+00 0.00000E+00
 60.400 1.03686E-08 1.03686E-08 0.00000E+00 0.00000E+00 0.00000E+00
 60.500 3.47918E-09 3.47918E-09 0.00000E+00 0.00000E+00 0.00000E+00
 60.600 1.11160E-09 1.11160E-09 0.00000E+00 0.00000E+00 0.00000E+00
 60.700 3.38212E-10 3.38212E-10 0.00000E+00 0.00000E+00 0.00000E+00
 60.800 9.80232E-11 9.80232E-11 0.00000E+00 0.00000E+00 0.00000E+00
 60.900 2.70670E-11 2.70670E-11 0.00000E+00 0.00000E+00 0.00000E+00
 61.000 7.12352E-12 7.12352E-12 0.00000E+00 0.00000E+00 0.00000E+00
 61.100 1.78743E-12 1.78743E-12 0.00000E+00 0.00000E+00 0.00000E+00
 61.200 4.27764E-13 4.27764E-13 0.00000E+00 0.00000E+00 0.00000E+00
 61.300 9.76972E-14 9.76972E-14 0.00000E+00 0.00000E+00 0.00000E+00
 61.400 2.13041E-14 2.13041E-14 0.00000E+00 0.00000E+00 0.00000E+00
 61.500 4.43894E-15 4.43894E-15 0.00000E+00 0.00000E+00 0.00000E+00
 61.600 8.84352E-16 8.84352E-16 0.00000E+00 0.00000E+00 0.00000E+00
 61.700 1.68585E-16 1.68585E-16 0.00000E+00 0.00000E+00 0.00000E+00
 61.800 3.07817E-17 3.07817E-17 0.00000E+00 0.00000E+00 0.00000E+00
 61.900 5.38733E-18 5.38733E-18 0.00000E+00 0.00000E+00 0.00000E+00
 62.000 9.04708E-19 9.04708E-19 0.00000E+00 0.00000E+00 0.00000E+00
 62.100 1.45894E-19 1.45894E-19 0.00000E+00 0.00000E+00 0.00000E+00
 62.200 2.26078E-20 2.26078E-20 0.00000E+00 0.00000E+00 0.00000E+00
 62.300 3.36900E-21 3.36900E-21 0.00000E+00 0.00000E+00 0.00000E+00
 62.400 4.82936E-22 4.82936E-22 0.00000E+00 0.00000E+00 0.00000E+00
 62.500 6.66166E-23 6.66166E-23 0.00000E+00 0.00000E+00 0.00000E+00
 62.600 8.84175E-24 8.84175E-24 0.00000E+00 0.00000E+00 0.00000E+00
 62.700 1.12879E-24 1.12879E-24 0.00000E+00 0.00000E+00 0.00000E+00
 62.800 1.38572E-25 1.38572E-25 0.00000E+00 0.00000E+00 0.00000E+00
 62.900 1.63449E-26 1.63449E-26 0.00000E+00 0.00000E+00 0.00000E+00
 63.000 1.85131E-27 1.85131E-27 0.00000E+00 0.00000E+00 0.00000E+00
 63.100 2.01175E-28 2.01175E-28 0.00000E+00 0.00000E+00 0.00000E+00
 63.200 2.09534E-29 2.09534E-29 0.00000E+00 0.00000E+00 0.00000E+00
 63.300 2.09042E-30 2.09042E-30 0.00000E+00 0.00000E+00 0.00000E+00
 63.400 1.99568E-31 1.99568E-31 0.00000E+00 0.00000E+00 0.00000E+00
 63.500 1.82213E-32 1.82213E-32 0.00000E+00 0.00000E+00 0.00000E+00
 63.600 1.58992E-33 1.58992E-33 0.00000E+00 0.00000E+00 0.00000E+00
 63.700 1.32490E-34 1.32490E-34 0.00000E+00 0.00000E+00 0.00000E+00
 63.800 1.05406E-35 1.05406E-35 0.00000E+00 0.00000E+00 0.00000E+00
 63.900 8.00102E-37 8.00102E-37 0.00000E+00 0.00000E+00 0.00000E+00
 64.000 5.79362E-38 5.79362E-38 0.00000E+00 0.00000E+00 0.00000E+00
 64.100 4.00039E-39 4.00039E-39 0.00000E+00 0.00000E+00 0.00000E+00
 64.200 2.63324E-40 2.63324E-40 0.00000E+00 0.00000E+00 0.00000E+00
 64.300 1.65171E-41 1.65171E-41 0.00000E+00 0.00000E+00 0.00000E+00
 64.400 9.87915E-43 9.87915E-43 0.00000E+00 0.00000E+00 0.00000E+00
 64.500 5.60519E-44 5.60519E-44 0.00000E+00 0.00000E+00 0.00000E+00
 64.600 2.80260E-45 2.80260E-45 0.00000E+00 0.00000E+00 0.00000E+00
 64.700 0.00000E+00 0.00000E+00 0.00000E+00 0.00000E+00 0.00000E+00
 64.800 0.00000E+00 0.00000E+00 0.00000E+00 0.00000E+00 0.00000E+00
 64.900 0.00000E+00 0.00000E+00 0.00000E+00 0.00000E+00 0.00000E+00
 65.000 0.00000E+00 0.00000E+00 0.00000E+00 0.00000E+00 0.00000E+00
 65.100 0.00000E+00 0.00000E+00 0.00000E+00 0.00000E+00 0.00000E+00
 65.200 0.00000E+00 0.00000E+00 0.00000E+00 0.00000E+00 0.00000E+00
 65.300 0.00000E+00 0.00000E+00 0.00000E+00 0.00000E+00 0.00000E+00
 65.400 0.00000E+00 0.00000E+00 0.00000E+00 0.00000E+00 0.00000E+00
 65.500 0.00000E+00 0.00000E+00 0.00000E+00 0.00000E+00 0.00000E+00
 65.600 0.00000E+00 0.00000E+00 0.00000E+00 0.00000E+00 0.00000E+00
 65.700 0.00000E+00 0.00000E+00 0.00000E+00 0.00000E+00 0.00000E+00
 65.800 0.00000E+00 0.00000E+00 0.00000E+00 0.00000E+00 0.00000E+00
 65.900 0.00000E+00 0.00000E+00 0.00000E+00 0.00000E+00 0.00000E+00
 66.000 0.00000E+00 0.00000E+00 0.00000E+00 0.00000E+00 0.00000E+00
 66.100 0.00000E+00 0.00000E+00 0.00000E+00 0.00000E+00 0.00000E+00
 66.200 0.00000E+00 0.00000E+00 0.00000E+00 0.00000E+00 0.00000E+00
 66.300 0.00000E+00 0.00000E+00 0.00000E+00 0.00000E+00 0.00000E+00
 66.400 0.00000E+00 0.00000E+00 0.00000E+00 0.00000E+00 0.00000E+00
 66.500 0.00000E+00 0.00000E+00 0.00000E+00 0.00000E+00 0.00000E+00
 66.600 0.00000E+00 0.00000E+00 0.00000E+00 0.00000E+00 0.00000E+00
 66.700 0.00000E+00 0.00000E+00 0.00000E+00 0.00000E+00 0.00000E+00
 66.800 0.00000E+00 0.00000E+00 0.00000E+00 0.00000E+00 0.00000E+00
 66.900 0.00000E+00 0.00000E+00 0.00000E+00 0.00000E+00 0.00000E+00
 67.000 0.00000E+00 0.00000E+00 0.00000E+00 0.00000E+00 0.00000E+00
 67.100 0.00000E+00 0.00000E+00 0.00000E+00 0.00000E+00 0.00000E+00
 67.200 0.00000E+00 0.00000E+00 0.00000E+00 0.00000E+00 0.00000E+00
 67.300 0.00000E+00 0.00000E+00 0.00000E+00 0.00000E+00 0.00000E+00
 67.400 0.00000E+00 0.00000E+00 0.00000E+00 0.00000E+00 0.00000E+00
 67.500 0.00000E+00 0.00000E+00 0.00000E+00 0.00000E+00 0.00000E+00
 67.600 0.00000E+00 0.00000E+00 0.00000E+00 0.00000E+00 0.00000E+00
 67.700 0.00000E+00 0.00000E+00 0.00000E+00 0.00000E+00 0.00000E+00
 67.800 0.00000E+00 0.00000E+00 0.00000E+00 0.00000E+00 0.00000E+00
 67.900 0.00000E+00 0.00000E+00 0.00000E+00 0.00000E+00 0.00000E+00
 68.000 0.00000E+00 0.00000E+00 0.00000E+00 0.00000E+00 0.00000E+00
