# n + 209Bi: triton   DDX spectrum
# E-incident =   63.000
# Angle      = 110.000
# # energies =   227
#  E-out    Total       Direct    Pre-equil.  Mult. preeq  Compound
   0.400 0.00000E+00 0.00000E+00 0.00000E+00 0.00000E+00 0.00000E+00
   0.500 0.00000E+00 0.00000E+00 0.00000E+00 0.00000E+00 0.00000E+00
   0.600 0.00000E+00 0.00000E+00 0.00000E+00 0.00000E+00 0.00000E+00
   0.700 0.00000E+00 0.00000E+00 0.00000E+00 0.00000E+00 0.00000E+00
   0.800 0.00000E+00 0.00000E+00 0.00000E+00 0.00000E+00 0.00000E+00
   0.900 8.40779E-45 0.00000E+00 8.40779E-45 0.00000E+00 0.00000E+00
   1.000 7.05829E-12 0.00000E+00 1.32955E-41 0.00000E+00 7.05829E-12
   1.100 1.29696E-11 0.00000E+00 1.18052E-38 0.00000E+00 1.29696E-11
   1.200 7.02137E-11 0.00000E+00 9.79041E-36 0.00000E+00 7.02137E-11
   1.300 2.32399E-10 0.00000E+00 1.23740E-33 0.00000E+00 2.32399E-10
   1.400 6.04989E-10 0.00000E+00 9.07045E-32 0.00000E+00 6.04989E-10
   1.500 6.28316E-10 0.00000E+00 4.23265E-30 0.00000E+00 6.28316E-10
   1.600 6.37505E-10 0.00000E+00 1.35148E-28 0.00000E+00 6.37505E-10
   1.700 6.61789E-10 0.00000E+00 3.12528E-27 0.00000E+00 6.61789E-10
   1.800 6.70733E-10 0.00000E+00 5.48248E-26 0.00000E+00 6.70733E-10
   1.900 6.97322E-10 0.00000E+00 7.57078E-25 0.00000E+00 6.97322E-10
   2.000 9.21810E-10 0.00000E+00 8.48361E-24 0.00000E+00 9.21810E-10
   2.200 9.28046E-09 0.00000E+00 6.28473E-22 0.00000E+00 9.28046E-09
   2.400 5.23731E-08 0.00000E+00 2.61264E-20 0.00000E+00 5.23731E-08
   2.600 1.34793E-07 0.00000E+00 6.84336E-19 0.00000E+00 1.34793E-07
   2.800 1.91370E-07 0.00000E+00 1.23028E-17 0.00000E+00 1.91370E-07
   3.000 2.47085E-07 0.00000E+00 1.62125E-16 0.00000E+00 2.47085E-07
   3.200 5.24719E-06 0.00000E+00 1.64718E-15 0.00000E+00 5.24719E-06
   3.400 1.31937E-05 0.00000E+00 1.34324E-14 0.00000E+00 1.31937E-05
   3.600 1.53342E-05 0.00000E+00 9.07576E-14 0.00000E+00 1.53342E-05
   3.800 1.58550E-05 0.00000E+00 5.21432E-13 0.00000E+00 1.58550E-05
   4.000 1.65080E-05 0.00000E+00 2.60189E-12 0.00000E+00 1.65080E-05
   4.500 1.79384E-05 0.00000E+00 8.68674E-11 0.00000E+00 1.79383E-05
   5.000 2.23533E-05 0.00000E+00 1.62481E-09 0.00000E+00 2.23517E-05
   5.500 3.70843E-05 0.00000E+00 1.94158E-08 0.00000E+00 3.70649E-05
   6.000 4.74714E-05 0.00000E+00 1.62060E-07 0.00000E+00 4.73093E-05
   6.500 5.97287E-05 0.00000E+00 1.00825E-06 0.00000E+00 5.87204E-05
   7.000 2.27775E-04 0.00000E+00 4.90802E-06 0.00000E+00 2.22867E-04
   7.500 3.44146E-04 0.00000E+00 1.94438E-05 0.00000E+00 3.24702E-04
   8.000 4.57459E-04 0.00000E+00 6.47151E-05 0.00000E+00 3.92744E-04
   8.500 6.45380E-04 0.00000E+00 1.85442E-04 0.00000E+00 4.59938E-04
   9.000 9.84895E-04 0.00000E+00 4.64899E-04 0.00000E+00 5.19995E-04
   9.500 1.60426E-03 0.00000E+00 1.02596E-03 0.00000E+00 5.78293E-04
  10.000 2.64551E-03 0.00000E+00 1.98956E-03 0.00000E+00 6.55949E-04
  10.500 4.14049E-03 0.00000E+00 3.38711E-03 0.00000E+00 7.53377E-04
  11.000 5.86294E-03 0.00000E+00 5.11664E-03 0.00000E+00 7.46303E-04
  11.500 7.70390E-03 0.00000E+00 7.01013E-03 0.00000E+00 6.93772E-04
  12.000 9.55451E-03 0.00000E+00 8.92542E-03 0.00000E+00 6.29095E-04
  12.500 1.13388E-02 0.00000E+00 1.07758E-02 0.00000E+00 5.63019E-04
  13.000 1.30133E-02 0.00000E+00 1.25159E-02 0.00000E+00 4.97438E-04
  13.500 1.45544E-02 0.00000E+00 1.41303E-02 0.00000E+00 4.24071E-04
  14.000 1.59770E-02 0.00000E+00 1.56201E-02 0.00000E+00 3.56925E-04
  14.500 1.72661E-02 0.00000E+00 1.69852E-02 0.00000E+00 2.80974E-04
  15.000 1.84488E-02 0.00000E+00 1.82280E-02 0.00000E+00 2.20822E-04
  15.500 1.95093E-02 0.00000E+00 1.93562E-02 0.00000E+00 1.53128E-04
  16.000 2.04687E-02 0.00000E+00 2.03744E-02 0.00000E+00 9.42977E-05
  16.500 2.13569E-02 0.00000E+00 2.12819E-02 0.00000E+00 7.49769E-05
  17.000 2.21381E-02 0.00000E+00 2.20796E-02 0.00000E+00 5.85736E-05
  17.500 2.28121E-02 0.00000E+00 2.27738E-02 0.00000E+00 3.82422E-05
  18.000 2.33956E-02 0.00000E+00 2.33720E-02 0.00000E+00 2.36523E-05
  18.500 2.38929E-02 0.00000E+00 2.38784E-02 0.00000E+00 1.45125E-05
  19.000 2.43058E-02 0.00000E+00 2.42957E-02 0.00000E+00 1.01290E-05
  19.500 2.46379E-02 0.00000E+00 2.46297E-02 0.00000E+00 8.14318E-06
  20.000 2.48955E-02 0.00000E+00 2.48896E-02 0.00000E+00 5.84902E-06
  21.000 2.52214E-02 0.00000E+00 2.52197E-02 0.00000E+00 1.71831E-06
  22.000 2.53294E-02 0.00000E+00 2.53284E-02 0.00000E+00 1.01542E-06
  23.000 2.52510E-02 0.00000E+00 2.52505E-02 0.00000E+00 5.25563E-07
  24.000 2.50212E-02 0.00000E+00 2.50210E-02 0.00000E+00 1.46819E-07
  25.000 2.46625E-02 0.00000E+00 2.46624E-02 0.00000E+00 9.34099E-08
  26.000 2.36056E-02 0.00000E+00 2.36056E-02 0.00000E+00 4.20713E-08
  27.000 2.23155E-02 0.00000E+00 2.23155E-02 0.00000E+00 1.40445E-08
  28.000 2.09638E-02 0.00000E+00 2.09638E-02 0.00000E+00 7.56684E-09
  29.000 1.95746E-02 0.00000E+00 1.95746E-02 0.00000E+00 2.50310E-09
  30.000 1.81703E-02 0.00000E+00 1.81703E-02 0.00000E+00 1.16683E-09
  31.000 1.67703E-02 0.00000E+00 1.67703E-02 0.00000E+00 5.14052E-10
  32.000 1.53893E-02 0.00000E+00 1.53893E-02 0.00000E+00 1.68553E-10
  33.000 1.40409E-02 0.00000E+00 1.40409E-02 0.00000E+00 0.00000E+00
  34.000 1.27372E-02 0.00000E+00 1.27372E-02 0.00000E+00 0.00000E+00
  35.000 1.14880E-02 0.00000E+00 1.14880E-02 0.00000E+00 0.00000E+00
  36.000 1.03007E-02 0.00000E+00 1.03007E-02 0.00000E+00 0.00000E+00
  37.000 9.18093E-03 0.00000E+00 9.18093E-03 0.00000E+00 0.00000E+00
  38.000 8.13267E-03 0.00000E+00 8.13267E-03 0.00000E+00 0.00000E+00
  39.000 7.15858E-03 0.00000E+00 7.15858E-03 0.00000E+00 0.00000E+00
  40.000 6.25977E-03 0.00000E+00 6.25977E-03 0.00000E+00 0.00000E+00
  42.000 4.68706E-03 0.00000E+00 4.68706E-03 0.00000E+00 0.00000E+00
  44.000 3.40395E-03 0.00000E+00 3.40395E-03 0.00000E+00 0.00000E+00
  46.000 2.38766E-03 0.00000E+00 2.38766E-03 0.00000E+00 0.00000E+00
  48.000 1.60761E-03 0.00000E+00 1.60761E-03 0.00000E+00 0.00000E+00
  50.000 1.02908E-03 0.00000E+00 1.02908E-03 0.00000E+00 0.00000E+00
  52.000 6.16212E-04 0.00000E+00 6.16212E-04 0.00000E+00 0.00000E+00
  54.000 3.34507E-04 0.00000E+00 3.34507E-04 0.00000E+00 0.00000E+00
  56.000 1.52599E-04 0.00000E+00 1.52599E-04 0.00000E+00 0.00000E+00
  56.100 1.45666E-04 2.86869E-07 1.45379E-04 0.00000E+00 0.00000E+00
  56.200 1.38723E-04 5.64196E-07 1.38159E-04 0.00000E+00 0.00000E+00
  56.300 1.31997E-04 1.05744E-06 1.30940E-04 0.00000E+00 0.00000E+00
  56.400 1.25609E-04 1.88941E-06 1.23720E-04 0.00000E+00 0.00000E+00
  56.500 1.19720E-04 3.21936E-06 1.16500E-04 0.00000E+00 0.00000E+00
  56.600 1.14514E-04 5.23302E-06 1.09281E-04 0.00000E+00 0.00000E+00
  56.700 1.10179E-04 8.11792E-06 1.02061E-04 0.00000E+00 0.00000E+00
  56.800 1.06864E-04 1.20229E-05 9.48411E-05 0.00000E+00 0.00000E+00
  56.900 1.04630E-04 1.70086E-05 8.76212E-05 0.00000E+00 0.00000E+00
  57.000 1.03398E-04 2.29961E-05 8.04016E-05 0.00000E+00 0.00000E+00
  57.100 1.02919E-04 2.97366E-05 7.31820E-05 0.00000E+00 0.00000E+00
  57.200 1.02776E-04 3.68134E-05 6.59622E-05 0.00000E+00 0.00000E+00
  57.300 1.02431E-04 4.36888E-05 5.87426E-05 0.00000E+00 0.00000E+00
  57.400 1.01318E-04 4.97950E-05 5.15227E-05 0.00000E+00 0.00000E+00
  57.500 9.89470E-05 5.46439E-05 4.43031E-05 0.00000E+00 0.00000E+00
  57.600 9.50130E-05 5.79295E-05 3.70835E-05 0.00000E+00 0.00000E+00
  57.700 8.94505E-05 5.95869E-05 2.98636E-05 0.00000E+00 0.00000E+00
  57.800 8.24308E-05 5.97868E-05 2.26440E-05 0.00000E+00 0.00000E+00
  57.900 7.42958E-05 5.88716E-05 1.54242E-05 0.00000E+00 0.00000E+00
  58.000 6.54579E-05 5.72533E-05 8.20457E-06 0.00000E+00 0.00000E+00
  58.100 6.31084E-05 5.53141E-05 7.79434E-06 0.00000E+00 0.00000E+00
  58.200 6.07261E-05 5.33420E-05 7.38411E-06 0.00000E+00 0.00000E+00
  58.300 5.84910E-05 5.15171E-05 6.97388E-06 0.00000E+00 0.00000E+00
  58.400 5.65013E-05 4.99377E-05 6.56365E-06 0.00000E+00 0.00000E+00
  58.500 5.48133E-05 4.86599E-05 6.15342E-06 0.00000E+00 0.00000E+00
  58.600 5.34669E-05 4.77237E-05 5.74320E-06 0.00000E+00 0.00000E+00
  58.700 5.24815E-05 4.71485E-05 5.33296E-06 0.00000E+00 0.00000E+00
  58.800 5.18284E-05 4.69057E-05 4.92274E-06 0.00000E+00 0.00000E+00
  58.900 5.13994E-05 4.68869E-05 4.51251E-06 0.00000E+00 0.00000E+00
  59.000 5.09964E-05 4.68941E-05 4.10228E-06 0.00000E+00 0.00000E+00
  59.100 5.03553E-05 4.66633E-05 3.69206E-06 0.00000E+00 0.00000E+00
  59.200 4.92000E-05 4.59182E-05 3.28182E-06 0.00000E+00 0.00000E+00
  59.300 4.73096E-05 4.44380E-05 2.87160E-06 0.00000E+00 0.00000E+00
  59.400 4.45740E-05 4.21126E-05 2.46136E-06 0.00000E+00 0.00000E+00
  59.500 4.10198E-05 3.89687E-05 2.05114E-06 0.00000E+00 0.00000E+00
  59.600 3.67996E-05 3.51587E-05 1.64092E-06 0.00000E+00 0.00000E+00
  59.700 3.21515E-05 3.09208E-05 1.23068E-06 0.00000E+00 0.00000E+00
  59.800 2.73456E-05 2.65251E-05 8.20460E-07 0.00000E+00 0.00000E+00
  59.900 2.26315E-05 2.22213E-05 4.10222E-07 0.00000E+00 0.00000E+00
  60.000 1.82051E-05 1.82051E-05 0.00000E+00 0.00000E+00 0.00000E+00
  60.100 1.46028E-05 1.46028E-05 0.00000E+00 0.00000E+00 0.00000E+00
  60.200 1.14752E-05 1.14752E-05 0.00000E+00 0.00000E+00 0.00000E+00
  60.300 8.83266E-06 8.83266E-06 0.00000E+00 0.00000E+00 0.00000E+00
  60.400 6.65215E-06 6.65215E-06 0.00000E+00 0.00000E+00 0.00000E+00
  60.500 4.89303E-06 4.89303E-06 0.00000E+00 0.00000E+00 0.00000E+00
  60.600 3.50663E-06 3.50663E-06 0.00000E+00 0.00000E+00 0.00000E+00
  60.700 2.44183E-06 2.44183E-06 0.00000E+00 0.00000E+00 0.00000E+00
  60.800 1.64771E-06 1.64771E-06 0.00000E+00 0.00000E+00 0.00000E+00
  60.900 1.07461E-06 1.07461E-06 0.00000E+00 0.00000E+00 0.00000E+00
  61.000 6.75858E-07 6.75858E-07 0.00000E+00 0.00000E+00 0.00000E+00
  61.100 4.09104E-07 4.09104E-07 0.00000E+00 0.00000E+00 0.00000E+00
  61.200 2.37947E-07 2.37947E-07 0.00000E+00 0.00000E+00 0.00000E+00
  61.300 1.32815E-07 1.32815E-07 0.00000E+00 0.00000E+00 0.00000E+00
  61.400 7.10671E-08 7.10671E-08 0.00000E+00 0.00000E+00 0.00000E+00
  61.500 3.64264E-08 3.64264E-08 0.00000E+00 0.00000E+00 0.00000E+00
  61.600 1.78735E-08 1.78735E-08 0.00000E+00 0.00000E+00 0.00000E+00
  61.700 8.39125E-09 8.39125E-09 0.00000E+00 0.00000E+00 0.00000E+00
  61.800 3.76822E-09 3.76822E-09 0.00000E+00 0.00000E+00 0.00000E+00
  61.900 1.61805E-09 1.61805E-09 0.00000E+00 0.00000E+00 0.00000E+00
  62.000 6.64243E-10 6.64243E-10 0.00000E+00 0.00000E+00 0.00000E+00
  62.100 2.60652E-10 2.60652E-10 0.00000E+00 0.00000E+00 0.00000E+00
  62.200 9.77523E-11 9.77523E-11 0.00000E+00 0.00000E+00 0.00000E+00
  62.300 3.50360E-11 3.50360E-11 0.00000E+00 0.00000E+00 0.00000E+00
  62.400 1.19995E-11 1.19995E-11 0.00000E+00 0.00000E+00 0.00000E+00
  62.500 3.92722E-12 3.92722E-12 0.00000E+00 0.00000E+00 0.00000E+00
  62.600 1.22814E-12 1.22814E-12 0.00000E+00 0.00000E+00 0.00000E+00
  62.700 3.66957E-13 3.66957E-13 0.00000E+00 0.00000E+00 0.00000E+00
  62.800 1.04766E-13 1.04766E-13 0.00000E+00 0.00000E+00 0.00000E+00
  62.900 2.85770E-14 2.85770E-14 0.00000E+00 0.00000E+00 0.00000E+00
  63.000 7.44796E-15 7.44796E-15 0.00000E+00 0.00000E+00 0.00000E+00
  63.100 1.85465E-15 1.85465E-15 0.00000E+00 0.00000E+00 0.00000E+00
  63.200 4.41224E-16 4.41224E-16 0.00000E+00 0.00000E+00 0.00000E+00
  63.300 1.00295E-16 1.00295E-16 0.00000E+00 0.00000E+00 0.00000E+00
  63.400 2.17804E-17 2.17804E-17 0.00000E+00 0.00000E+00 0.00000E+00
  63.500 4.51932E-18 4.51932E-18 0.00000E+00 0.00000E+00 0.00000E+00
  63.600 8.95929E-19 8.95929E-19 0.00000E+00 0.00000E+00 0.00000E+00
  63.700 1.69683E-19 1.69683E-19 0.00000E+00 0.00000E+00 0.00000E+00
  63.800 3.07059E-20 3.07059E-20 0.00000E+00 0.00000E+00 0.00000E+00
  63.900 5.30847E-21 5.30847E-21 0.00000E+00 0.00000E+00 0.00000E+00
  64.000 8.76871E-22 8.76871E-22 0.00000E+00 0.00000E+00 0.00000E+00
  64.100 1.38387E-22 1.38387E-22 0.00000E+00 0.00000E+00 0.00000E+00
  64.200 2.08661E-23 2.08661E-23 0.00000E+00 0.00000E+00 0.00000E+00
  64.300 3.00551E-24 3.00551E-24 0.00000E+00 0.00000E+00 0.00000E+00
  64.400 4.13664E-25 4.13664E-25 0.00000E+00 0.00000E+00 0.00000E+00
  64.500 5.43959E-26 5.43959E-26 0.00000E+00 0.00000E+00 0.00000E+00
  64.600 6.83408E-27 6.83408E-27 0.00000E+00 0.00000E+00 0.00000E+00
  64.700 8.20315E-28 8.20315E-28 0.00000E+00 0.00000E+00 0.00000E+00
  64.800 9.40592E-29 9.40592E-29 0.00000E+00 0.00000E+00 0.00000E+00
  64.900 1.03059E-29 1.03059E-29 0.00000E+00 0.00000E+00 0.00000E+00
  65.000 1.07884E-30 1.07884E-30 0.00000E+00 0.00000E+00 0.00000E+00
  65.100 1.07900E-31 1.07900E-31 0.00000E+00 0.00000E+00 0.00000E+00
  65.200 1.03104E-32 1.03104E-32 0.00000E+00 0.00000E+00 0.00000E+00
  65.300 9.41106E-34 9.41106E-34 0.00000E+00 0.00000E+00 0.00000E+00
  65.400 8.20875E-35 8.20875E-35 0.00000E+00 0.00000E+00 0.00000E+00
  65.500 6.84066E-36 6.84066E-36 0.00000E+00 0.00000E+00 0.00000E+00
  65.600 5.44651E-37 5.44651E-37 0.00000E+00 0.00000E+00 0.00000E+00
  65.700 4.14305E-38 4.14305E-38 0.00000E+00 0.00000E+00 0.00000E+00
  65.800 3.01046E-39 3.01046E-39 0.00000E+00 0.00000E+00 0.00000E+00
  65.900 2.09034E-40 2.09034E-40 0.00000E+00 0.00000E+00 0.00000E+00
  66.000 1.38672E-41 1.38672E-41 0.00000E+00 0.00000E+00 0.00000E+00
  66.100 8.78614E-43 8.78614E-43 0.00000E+00 0.00000E+00 0.00000E+00
  66.200 5.32493E-44 5.32493E-44 0.00000E+00 0.00000E+00 0.00000E+00
  66.300 2.80260E-45 2.80260E-45 0.00000E+00 0.00000E+00 0.00000E+00
  66.400 0.00000E+00 0.00000E+00 0.00000E+00 0.00000E+00 0.00000E+00
  66.500 0.00000E+00 0.00000E+00 0.00000E+00 0.00000E+00 0.00000E+00
  66.600 0.00000E+00 0.00000E+00 0.00000E+00 0.00000E+00 0.00000E+00
  66.700 0.00000E+00 0.00000E+00 0.00000E+00 0.00000E+00 0.00000E+00
  66.800 0.00000E+00 0.00000E+00 0.00000E+00 0.00000E+00 0.00000E+00
  66.900 0.00000E+00 0.00000E+00 0.00000E+00 0.00000E+00 0.00000E+00
  67.000 0.00000E+00 0.00000E+00 0.00000E+00 0.00000E+00 0.00000E+00
  67.100 0.00000E+00 0.00000E+00 0.00000E+00 0.00000E+00 0.00000E+00
  67.200 0.00000E+00 0.00000E+00 0.00000E+00 0.00000E+00 0.00000E+00
  67.300 0.00000E+00 0.00000E+00 0.00000E+00 0.00000E+00 0.00000E+00
  67.400 0.00000E+00 0.00000E+00 0.00000E+00 0.00000E+00 0.00000E+00
  67.500 0.00000E+00 0.00000E+00 0.00000E+00 0.00000E+00 0.00000E+00
  67.600 0.00000E+00 0.00000E+00 0.00000E+00 0.00000E+00 0.00000E+00
  67.700 0.00000E+00 0.00000E+00 0.00000E+00 0.00000E+00 0.00000E+00
  67.800 0.00000E+00 0.00000E+00 0.00000E+00 0.00000E+00 0.00000E+00
  67.900 0.00000E+00 0.00000E+00 0.00000E+00 0.00000E+00 0.00000E+00
  68.000 0.00000E+00 0.00000E+00 0.00000E+00 0.00000E+00 0.00000E+00
  68.100 0.00000E+00 0.00000E+00 0.00000E+00 0.00000E+00 0.00000E+00
  68.200 0.00000E+00 0.00000E+00 0.00000E+00 0.00000E+00 0.00000E+00
  68.300 0.00000E+00 0.00000E+00 0.00000E+00 0.00000E+00 0.00000E+00
  68.400 0.00000E+00 0.00000E+00 0.00000E+00 0.00000E+00 0.00000E+00
  68.500 0.00000E+00 0.00000E+00 0.00000E+00 0.00000E+00 0.00000E+00
  68.600 0.00000E+00 0.00000E+00 0.00000E+00 0.00000E+00 0.00000E+00
  68.700 0.00000E+00 0.00000E+00 0.00000E+00 0.00000E+00 0.00000E+00
  68.800 0.00000E+00 0.00000E+00 0.00000E+00 0.00000E+00 0.00000E+00
  68.900 0.00000E+00 0.00000E+00 0.00000E+00 0.00000E+00 0.00000E+00
  69.000 0.00000E+00 0.00000E+00 0.00000E+00 0.00000E+00 0.00000E+00
  69.100 0.00000E+00 0.00000E+00 0.00000E+00 0.00000E+00 0.00000E+00
  69.200 0.00000E+00 0.00000E+00 0.00000E+00 0.00000E+00 0.00000E+00
  69.300 0.00000E+00 0.00000E+00 0.00000E+00 0.00000E+00 0.00000E+00
  69.400 0.00000E+00 0.00000E+00 0.00000E+00 0.00000E+00 0.00000E+00
  69.500 0.00000E+00 0.00000E+00 0.00000E+00 0.00000E+00 0.00000E+00
  69.600 0.00000E+00 0.00000E+00 0.00000E+00 0.00000E+00 0.00000E+00
  69.700 0.00000E+00 0.00000E+00 0.00000E+00 0.00000E+00 0.00000E+00
  69.800 0.00000E+00 0.00000E+00 0.00000E+00 0.00000E+00 0.00000E+00
  69.900 0.00000E+00 0.00000E+00 0.00000E+00 0.00000E+00 0.00000E+00
  70.000 0.00000E+00 0.00000E+00 0.00000E+00 0.00000E+00 0.00000E+00
