# n + Bi209: deuteron DDX spectrum
# E-incident =   63.00000
# Angle      = 110.000
# # energies =   227
#  E-out    Total       Direct    Pre-equil.  Mult. preeq  Compound
   0.400 0.00000E+00 0.00000E+00 0.00000E+00 0.00000E+00 0.00000E+00
   0.500 0.00000E+00 0.00000E+00 0.00000E+00 0.00000E+00 0.00000E+00
   0.600 0.00000E+00 0.00000E+00 0.00000E+00 0.00000E+00 0.00000E+00
   0.700 1.40130E-44 0.00000E+00 1.40130E-44 0.00000E+00 0.00000E+00
   0.800 8.75307E-41 0.00000E+00 8.75307E-41 0.00000E+00 0.00000E+00
   0.900 1.21797E-37 0.00000E+00 1.21797E-37 0.00000E+00 0.00000E+00
   1.000 2.96110E-34 0.00000E+00 2.96110E-34 0.00000E+00 0.00000E+00
   1.100 5.67359E-32 0.00000E+00 5.67359E-32 0.00000E+00 0.00000E+00
   1.200 5.50135E-30 0.00000E+00 5.50135E-30 0.00000E+00 0.00000E+00
   1.300 3.08612E-28 0.00000E+00 3.08612E-28 0.00000E+00 0.00000E+00
   1.400 1.10605E-26 0.00000E+00 1.10605E-26 0.00000E+00 0.00000E+00
   1.500 2.73402E-25 0.00000E+00 2.73402E-25 0.00000E+00 0.00000E+00
   1.600 4.94266E-24 0.00000E+00 4.94266E-24 0.00000E+00 0.00000E+00
   1.700 6.84720E-23 0.00000E+00 6.84720E-23 0.00000E+00 0.00000E+00
   1.800 7.54614E-22 0.00000E+00 7.54614E-22 0.00000E+00 0.00000E+00
   1.900 6.82087E-21 0.00000E+00 6.82087E-21 0.00000E+00 0.00000E+00
   2.000 5.18365E-20 0.00000E+00 5.18365E-20 0.00000E+00 0.00000E+00
   2.200 1.92969E-18 0.00000E+00 1.92969E-18 0.00000E+00 0.00000E+00
   2.400 4.43426E-17 0.00000E+00 4.43426E-17 0.00000E+00 0.00000E+00
   2.600 6.91370E-16 0.00000E+00 6.91370E-16 0.00000E+00 0.00000E+00
   2.800 7.85173E-15 0.00000E+00 7.85173E-15 0.00000E+00 0.00000E+00
   3.000 4.17565E-12 0.00000E+00 6.85468E-14 0.00000E+00 4.10710E-12
   3.200 9.91942E-11 0.00000E+00 4.79770E-13 0.00000E+00 9.87144E-11
   3.400 7.48321E-10 0.00000E+00 2.78415E-12 0.00000E+00 7.45537E-10
   3.600 4.02137E-09 0.00000E+00 1.37584E-11 0.00000E+00 4.00761E-09
   3.800 2.95781E-08 0.00000E+00 5.91905E-11 0.00000E+00 2.95189E-08
   4.000 8.47440E-08 0.00000E+00 2.25708E-10 0.00000E+00 8.45183E-08
   4.500 2.80232E-07 0.00000E+00 4.14869E-09 0.00000E+00 2.76084E-07
   5.000 2.67309E-06 0.00000E+00 4.67646E-08 0.00000E+00 2.62632E-06
   5.500 1.00275E-05 0.00000E+00 3.64164E-07 0.00000E+00 9.66338E-06
   6.000 2.66068E-05 0.00000E+00 2.12732E-06 0.00000E+00 2.44795E-05
   6.500 1.09631E-04 0.00000E+00 9.88232E-06 0.00000E+00 9.97488E-05
   7.000 2.17242E-04 0.00000E+00 3.80550E-05 0.00000E+00 1.79187E-04
   7.500 5.15732E-04 0.00000E+00 1.25041E-04 0.00000E+00 3.90690E-04
   8.000 1.08013E-03 0.00000E+00 3.57046E-04 0.00000E+00 7.23085E-04
   8.500 1.88354E-03 0.00000E+00 8.93411E-04 0.00000E+00 9.90131E-04
   9.000 3.43236E-03 0.00000E+00 1.95916E-03 0.00000E+00 1.47321E-03
   9.500 5.47097E-03 0.00000E+00 3.75825E-03 0.00000E+00 1.71272E-03
  10.000 8.20365E-03 0.00000E+00 6.34737E-03 0.00000E+00 1.85628E-03
  10.500 1.14380E-02 0.00000E+00 9.61875E-03 0.00000E+00 1.81921E-03
  11.000 1.50832E-02 0.00000E+00 1.33969E-02 0.00000E+00 1.68633E-03
  11.500 1.88772E-02 0.00000E+00 1.75078E-02 0.00000E+00 1.36933E-03
  12.000 2.29271E-02 0.00000E+00 2.17803E-02 0.00000E+00 1.14672E-03
  12.500 2.69184E-02 0.00000E+00 2.60527E-02 0.00000E+00 8.65659E-04
  13.000 3.07989E-02 0.00000E+00 3.01770E-02 0.00000E+00 6.21895E-04
  13.500 3.45104E-02 0.00000E+00 3.40221E-02 0.00000E+00 4.88319E-04
  14.000 3.78121E-02 0.00000E+00 3.74982E-02 0.00000E+00 3.13893E-04
  14.500 4.08082E-02 0.00000E+00 4.05758E-02 0.00000E+00 2.32344E-04
  15.000 4.34330E-02 0.00000E+00 4.32684E-02 0.00000E+00 1.64640E-04
  15.500 4.57027E-02 0.00000E+00 4.56025E-02 0.00000E+00 1.00180E-04
  16.000 4.76787E-02 0.00000E+00 4.76034E-02 0.00000E+00 7.53354E-05
  16.500 4.93473E-02 0.00000E+00 4.92980E-02 0.00000E+00 4.92197E-05
  17.000 5.07464E-02 0.00000E+00 5.07151E-02 0.00000E+00 3.13200E-05
  17.500 5.19017E-02 0.00000E+00 5.18789E-02 0.00000E+00 2.27994E-05
  18.000 5.28204E-02 0.00000E+00 5.28063E-02 0.00000E+00 1.40346E-05
  18.500 5.35171E-02 0.00000E+00 5.35077E-02 0.00000E+00 9.40873E-06
  19.000 5.39977E-02 0.00000E+00 5.39911E-02 0.00000E+00 6.59412E-06
  19.500 5.42717E-02 0.00000E+00 5.42677E-02 0.00000E+00 4.03767E-06
  20.000 5.43564E-02 0.00000E+00 5.43537E-02 0.00000E+00 2.67479E-06
  21.000 5.40235E-02 0.00000E+00 5.40223E-02 0.00000E+00 1.17854E-06
  22.000 5.31287E-02 0.00000E+00 5.31282E-02 0.00000E+00 5.19483E-07
  23.000 5.17749E-02 0.00000E+00 5.17747E-02 0.00000E+00 2.22003E-07
  24.000 5.00309E-02 0.00000E+00 5.00308E-02 0.00000E+00 9.47438E-08
  25.000 4.79530E-02 0.00000E+00 4.79530E-02 0.00000E+00 3.95450E-08
  26.000 4.56144E-02 0.00000E+00 4.56144E-02 0.00000E+00 1.73705E-08
  27.000 4.31387E-02 0.00000E+00 4.31387E-02 0.00000E+00 7.05688E-09
  28.000 4.05881E-02 0.00000E+00 4.05881E-02 0.00000E+00 2.79299E-09
  29.000 3.80024E-02 0.00000E+00 3.80024E-02 0.00000E+00 1.17097E-09
  30.000 3.54121E-02 0.00000E+00 3.54121E-02 0.00000E+00 4.38448E-10
  31.000 3.28430E-02 0.00000E+00 3.28430E-02 0.00000E+00 1.72194E-10
  32.000 3.03186E-02 0.00000E+00 3.03186E-02 0.00000E+00 0.00000E+00
  33.000 2.78606E-02 0.00000E+00 2.78606E-02 0.00000E+00 0.00000E+00
  34.000 2.54890E-02 0.00000E+00 2.54890E-02 0.00000E+00 0.00000E+00
  35.000 2.32193E-02 0.00000E+00 2.32193E-02 0.00000E+00 0.00000E+00
  36.000 2.10619E-02 0.00000E+00 2.10619E-02 0.00000E+00 0.00000E+00
  37.000 1.90235E-02 0.00000E+00 1.90235E-02 0.00000E+00 0.00000E+00
  38.000 1.71080E-02 0.00000E+00 1.71080E-02 0.00000E+00 0.00000E+00
  39.000 1.53185E-02 0.00000E+00 1.53185E-02 0.00000E+00 0.00000E+00
  40.000 1.36569E-02 0.00000E+00 1.36569E-02 0.00000E+00 0.00000E+00
  42.000 1.07173E-02 0.00000E+00 1.07173E-02 0.00000E+00 0.00000E+00
  44.000 8.27220E-03 0.00000E+00 8.27220E-03 0.00000E+00 0.00000E+00
  46.000 6.28315E-03 0.00000E+00 6.28315E-03 0.00000E+00 0.00000E+00
  48.000 4.69931E-03 0.00000E+00 4.69931E-03 0.00000E+00 0.00000E+00
  50.000 3.46428E-03 0.00000E+00 3.46428E-03 0.00000E+00 0.00000E+00
  52.000 2.51978E-03 0.00000E+00 2.51978E-03 0.00000E+00 0.00000E+00
  54.000 1.81006E-03 0.00000E+00 1.81006E-03 0.00000E+00 0.00000E+00
  56.000 1.28508E-03 0.00000E+00 1.28508E-03 0.00000E+00 0.00000E+00
  56.100 1.23261E-03 7.43286E-06 1.22518E-03 0.00000E+00 0.00000E+00
  56.200 1.17892E-03 1.36441E-05 1.16528E-03 0.00000E+00 0.00000E+00
  56.300 1.12929E-03 2.39173E-05 1.10537E-03 0.00000E+00 0.00000E+00
  56.400 1.08554E-03 4.00711E-05 1.04547E-03 0.00000E+00 0.00000E+00
  56.500 1.04979E-03 6.42237E-05 9.85566E-04 0.00000E+00 0.00000E+00
  56.600 1.02424E-03 9.85782E-05 9.25663E-04 0.00000E+00 0.00000E+00
  56.700 1.01085E-03 1.45089E-04 8.65759E-04 0.00000E+00 0.00000E+00
  56.800 1.01091E-03 2.05056E-04 8.05856E-04 0.00000E+00 0.00000E+00
  56.900 1.02472E-03 2.78765E-04 7.45952E-04 0.00000E+00 0.00000E+00
  57.000 1.05130E-03 3.65253E-04 6.86049E-04 0.00000E+00 0.00000E+00
  57.100 1.08851E-03 4.62360E-04 6.26147E-04 0.00000E+00 0.00000E+00
  57.200 1.13332E-03 5.67076E-04 5.66242E-04 0.00000E+00 0.00000E+00
  57.300 1.18250E-03 6.76164E-04 5.06340E-04 0.00000E+00 0.00000E+00
  57.400 1.23339E-03 7.86959E-04 4.46435E-04 0.00000E+00 0.00000E+00
  57.500 1.28453E-03 8.97998E-04 3.86533E-04 0.00000E+00 0.00000E+00
  57.600 1.33597E-03 1.00934E-03 3.26630E-04 0.00000E+00 0.00000E+00
  57.700 1.38895E-03 1.12222E-03 2.66726E-04 0.00000E+00 0.00000E+00
  57.800 1.44481E-03 1.23799E-03 2.06823E-04 0.00000E+00 0.00000E+00
  57.900 1.50348E-03 1.35657E-03 1.46919E-04 0.00000E+00 0.00000E+00
  58.000 1.56178E-03 1.47477E-03 8.70161E-05 0.00000E+00 0.00000E+00
  58.100 1.66791E-03 1.58525E-03 8.26654E-05 0.00000E+00 0.00000E+00
  58.200 1.75489E-03 1.67658E-03 7.83145E-05 0.00000E+00 0.00000E+00
  58.300 1.80886E-03 1.73489E-03 7.39637E-05 0.00000E+00 0.00000E+00
  58.400 1.81648E-03 1.74686E-03 6.96128E-05 0.00000E+00 0.00000E+00
  58.500 1.76840E-03 1.70313E-03 6.52621E-05 0.00000E+00 0.00000E+00
  58.600 1.66219E-03 1.60128E-03 6.09114E-05 0.00000E+00 0.00000E+00
  58.700 1.50365E-03 1.44709E-03 5.65604E-05 0.00000E+00 0.00000E+00
  58.800 1.30607E-03 1.25386E-03 5.22097E-05 0.00000E+00 0.00000E+00
  58.900 1.08756E-03 1.03970E-03 4.78588E-05 0.00000E+00 0.00000E+00
  59.000 8.67397E-04 8.23889E-04 4.35081E-05 0.00000E+00 0.00000E+00
  59.100 6.62472E-04 6.23315E-04 3.91573E-05 0.00000E+00 0.00000E+00
  59.200 4.84757E-04 4.49951E-04 3.48064E-05 0.00000E+00 0.00000E+00
  59.300 3.40387E-04 3.09932E-04 3.04557E-05 0.00000E+00 0.00000E+00
  59.400 2.30115E-04 2.04010E-04 2.61048E-05 0.00000E+00 0.00000E+00
  59.500 1.50850E-04 1.29096E-04 2.17540E-05 0.00000E+00 0.00000E+00
  59.600 9.74827E-05 8.00794E-05 1.74033E-05 0.00000E+00 0.00000E+00
  59.700 6.45904E-05 5.15380E-05 1.30524E-05 0.00000E+00 0.00000E+00
  59.800 4.76363E-05 3.89347E-05 8.70165E-06 0.00000E+00 0.00000E+00
  59.900 4.35927E-05 3.92420E-05 4.35074E-06 0.00000E+00 0.00000E+00
  60.000 5.10579E-05 5.10579E-05 0.00000E+00 0.00000E+00 0.00000E+00
  60.100 7.43181E-05 7.43181E-05 0.00000E+00 0.00000E+00 0.00000E+00
  60.200 1.09731E-04 1.09731E-04 0.00000E+00 0.00000E+00 0.00000E+00
  60.300 1.58030E-04 1.58030E-04 0.00000E+00 0.00000E+00 0.00000E+00
  60.400 2.19173E-04 2.19173E-04 0.00000E+00 0.00000E+00 0.00000E+00
  60.500 2.91597E-04 2.91597E-04 0.00000E+00 0.00000E+00 0.00000E+00
  60.600 3.71735E-04 3.71735E-04 0.00000E+00 0.00000E+00 0.00000E+00
  60.700 4.53939E-04 4.53939E-04 0.00000E+00 0.00000E+00 0.00000E+00
  60.800 5.30916E-04 5.30916E-04 0.00000E+00 0.00000E+00 0.00000E+00
  60.900 5.94719E-04 5.94719E-04 0.00000E+00 0.00000E+00 0.00000E+00
  61.000 6.38041E-04 6.38041E-04 0.00000E+00 0.00000E+00 0.00000E+00
  61.100 6.55597E-04 6.55597E-04 0.00000E+00 0.00000E+00 0.00000E+00
  61.200 6.45172E-04 6.45172E-04 0.00000E+00 0.00000E+00 0.00000E+00
  61.300 6.08087E-04 6.08087E-04 0.00000E+00 0.00000E+00 0.00000E+00
  61.400 5.48914E-04 5.48914E-04 0.00000E+00 0.00000E+00 0.00000E+00
  61.500 4.74566E-04 4.74566E-04 0.00000E+00 0.00000E+00 0.00000E+00
  61.600 3.92952E-04 3.92952E-04 0.00000E+00 0.00000E+00 0.00000E+00
  61.700 3.11623E-04 3.11623E-04 0.00000E+00 0.00000E+00 0.00000E+00
  61.800 2.36687E-04 2.36687E-04 0.00000E+00 0.00000E+00 0.00000E+00
  61.900 1.72173E-04 1.72173E-04 0.00000E+00 0.00000E+00 0.00000E+00
  62.000 1.19953E-04 1.19953E-04 0.00000E+00 0.00000E+00 0.00000E+00
  62.100 8.00404E-05 8.00404E-05 0.00000E+00 0.00000E+00 0.00000E+00
  62.200 5.11506E-05 5.11506E-05 0.00000E+00 0.00000E+00 0.00000E+00
  62.300 3.13076E-05 3.13076E-05 0.00000E+00 0.00000E+00 0.00000E+00
  62.400 1.83523E-05 1.83523E-05 0.00000E+00 0.00000E+00 0.00000E+00
  62.500 1.03037E-05 1.03037E-05 0.00000E+00 0.00000E+00 0.00000E+00
  62.600 5.54046E-06 5.54046E-06 0.00000E+00 0.00000E+00 0.00000E+00
  62.700 2.85324E-06 2.85324E-06 0.00000E+00 0.00000E+00 0.00000E+00
  62.800 1.40732E-06 1.40732E-06 0.00000E+00 0.00000E+00 0.00000E+00
  62.900 6.64791E-07 6.64791E-07 0.00000E+00 0.00000E+00 0.00000E+00
  63.000 3.00775E-07 3.00775E-07 0.00000E+00 0.00000E+00 0.00000E+00
  63.100 1.30331E-07 1.30331E-07 0.00000E+00 0.00000E+00 0.00000E+00
  63.200 5.40869E-08 5.40869E-08 0.00000E+00 0.00000E+00 0.00000E+00
  63.300 2.14982E-08 2.14982E-08 0.00000E+00 0.00000E+00 0.00000E+00
  63.400 8.18363E-09 8.18363E-09 0.00000E+00 0.00000E+00 0.00000E+00
  63.500 2.98371E-09 2.98371E-09 0.00000E+00 0.00000E+00 0.00000E+00
  63.600 1.04188E-09 1.04188E-09 0.00000E+00 0.00000E+00 0.00000E+00
  63.700 3.48428E-10 3.48428E-10 0.00000E+00 0.00000E+00 0.00000E+00
  63.800 1.11604E-10 1.11604E-10 0.00000E+00 0.00000E+00 0.00000E+00
  63.900 3.42352E-11 3.42352E-11 0.00000E+00 0.00000E+00 0.00000E+00
  64.000 1.00586E-11 1.00586E-11 0.00000E+00 0.00000E+00 0.00000E+00
  64.100 2.83045E-12 2.83045E-12 0.00000E+00 0.00000E+00 0.00000E+00
  64.200 7.62824E-13 7.62824E-13 0.00000E+00 0.00000E+00 0.00000E+00
  64.300 1.96878E-13 1.96878E-13 0.00000E+00 0.00000E+00 0.00000E+00
  64.400 4.86707E-14 4.86707E-14 0.00000E+00 0.00000E+00 0.00000E+00
  64.500 1.15236E-14 1.15236E-14 0.00000E+00 0.00000E+00 0.00000E+00
  64.600 2.61312E-15 2.61312E-15 0.00000E+00 0.00000E+00 0.00000E+00
  64.700 5.67521E-16 5.67521E-16 0.00000E+00 0.00000E+00 0.00000E+00
  64.800 1.18033E-16 1.18033E-16 0.00000E+00 0.00000E+00 0.00000E+00
  64.900 2.35141E-17 2.35141E-17 0.00000E+00 0.00000E+00 0.00000E+00
  65.000 4.48644E-18 4.48644E-18 0.00000E+00 0.00000E+00 0.00000E+00
  65.100 8.19840E-19 8.19840E-19 0.00000E+00 0.00000E+00 0.00000E+00
  65.200 1.43485E-19 1.43485E-19 0.00000E+00 0.00000E+00 0.00000E+00
  65.300 2.40479E-20 2.40479E-20 0.00000E+00 0.00000E+00 0.00000E+00
  65.400 3.86059E-21 3.86059E-21 0.00000E+00 0.00000E+00 0.00000E+00
  65.500 5.93588E-22 5.93588E-22 0.00000E+00 0.00000E+00 0.00000E+00
  65.600 8.74109E-23 8.74109E-23 0.00000E+00 0.00000E+00 0.00000E+00
  65.700 1.23282E-23 1.23282E-23 0.00000E+00 0.00000E+00 0.00000E+00
  65.800 1.66501E-24 1.66501E-24 0.00000E+00 0.00000E+00 0.00000E+00
  65.900 2.15402E-25 2.15402E-25 0.00000E+00 0.00000E+00 0.00000E+00
  66.000 2.66891E-26 2.66891E-26 0.00000E+00 0.00000E+00 0.00000E+00
  66.100 3.16716E-27 3.16716E-27 0.00000E+00 0.00000E+00 0.00000E+00
  66.200 3.59962E-28 3.59962E-28 0.00000E+00 0.00000E+00 0.00000E+00
  66.300 3.91762E-29 3.91762E-29 0.00000E+00 0.00000E+00 0.00000E+00
  66.400 4.08423E-30 4.08423E-30 0.00000E+00 0.00000E+00 0.00000E+00
  66.500 4.07801E-31 4.07801E-31 0.00000E+00 0.00000E+00 0.00000E+00
  66.600 3.89978E-32 3.89978E-32 0.00000E+00 0.00000E+00 0.00000E+00
  66.700 3.57175E-33 3.57175E-33 0.00000E+00 0.00000E+00 0.00000E+00
  66.800 3.13253E-34 3.13253E-34 0.00000E+00 0.00000E+00 0.00000E+00
  66.900 2.63171E-35 2.63171E-35 0.00000E+00 0.00000E+00 0.00000E+00
  67.000 2.11754E-36 2.11754E-36 0.00000E+00 0.00000E+00 0.00000E+00
  67.100 1.63185E-37 1.63185E-37 0.00000E+00 0.00000E+00 0.00000E+00
  67.200 1.20441E-38 1.20441E-38 0.00000E+00 0.00000E+00 0.00000E+00
  67.300 8.51202E-40 8.51202E-40 0.00000E+00 0.00000E+00 0.00000E+00
  67.400 5.76284E-41 5.76284E-41 0.00000E+00 0.00000E+00 0.00000E+00
  67.500 3.73726E-42 3.73726E-42 0.00000E+00 0.00000E+00 0.00000E+00
  67.600 2.32616E-43 2.32616E-43 0.00000E+00 0.00000E+00 0.00000E+00
  67.700 1.40130E-44 1.40130E-44 0.00000E+00 0.00000E+00 0.00000E+00
  67.800 1.40130E-45 1.40130E-45 0.00000E+00 0.00000E+00 0.00000E+00
  67.900 0.00000E+00 0.00000E+00 0.00000E+00 0.00000E+00 0.00000E+00
  68.000 0.00000E+00 0.00000E+00 0.00000E+00 0.00000E+00 0.00000E+00
  68.100 0.00000E+00 0.00000E+00 0.00000E+00 0.00000E+00 0.00000E+00
  68.200 0.00000E+00 0.00000E+00 0.00000E+00 0.00000E+00 0.00000E+00
  68.300 0.00000E+00 0.00000E+00 0.00000E+00 0.00000E+00 0.00000E+00
  68.400 0.00000E+00 0.00000E+00 0.00000E+00 0.00000E+00 0.00000E+00
  68.500 0.00000E+00 0.00000E+00 0.00000E+00 0.00000E+00 0.00000E+00
  68.600 0.00000E+00 0.00000E+00 0.00000E+00 0.00000E+00 0.00000E+00
  68.700 0.00000E+00 0.00000E+00 0.00000E+00 0.00000E+00 0.00000E+00
  68.800 0.00000E+00 0.00000E+00 0.00000E+00 0.00000E+00 0.00000E+00
  68.900 0.00000E+00 0.00000E+00 0.00000E+00 0.00000E+00 0.00000E+00
  69.000 0.00000E+00 0.00000E+00 0.00000E+00 0.00000E+00 0.00000E+00
  69.100 0.00000E+00 0.00000E+00 0.00000E+00 0.00000E+00 0.00000E+00
  69.200 0.00000E+00 0.00000E+00 0.00000E+00 0.00000E+00 0.00000E+00
  69.300 0.00000E+00 0.00000E+00 0.00000E+00 0.00000E+00 0.00000E+00
  69.400 0.00000E+00 0.00000E+00 0.00000E+00 0.00000E+00 0.00000E+00
  69.500 0.00000E+00 0.00000E+00 0.00000E+00 0.00000E+00 0.00000E+00
  69.600 0.00000E+00 0.00000E+00 0.00000E+00 0.00000E+00 0.00000E+00
  69.700 0.00000E+00 0.00000E+00 0.00000E+00 0.00000E+00 0.00000E+00
  69.800 0.00000E+00 0.00000E+00 0.00000E+00 0.00000E+00 0.00000E+00
  69.900 0.00000E+00 0.00000E+00 0.00000E+00 0.00000E+00 0.00000E+00
  70.000 0.00000E+00 0.00000E+00 0.00000E+00 0.00000E+00 0.00000E+00
