# n +  28Si   : (n,g)             Total
# Q-value    = 8.40273E+00
# E-threshold= 0.00000E+00
# # energies =    50
#     E          xs       gamma xs  xs/res.prod.xs
 1.00000E-01 4.68015E-01 8.57587E-01 1.00000E+00
 2.00000E-01 3.09274E-01 6.01825E-01 1.00000E+00
 4.00000E-01 2.12073E-01 4.34482E-01 1.00000E+00
 6.00000E-01 1.79880E-01 3.80709E-01 1.00000E+00
 8.00000E-01 1.66943E-01 3.61805E-01 1.00000E+00
 1.00000E+00 1.62518E-01 3.58602E-01 1.00000E+00
 1.20000E+00 1.66191E-01 3.76046E-01 1.00000E+00
 1.40000E+00 1.71663E-01 3.94783E-01 1.00000E+00
 1.60000E+00 1.79956E-01 4.19767E-01 1.00000E+00
 1.80000E+00 1.90687E-01 4.50367E-01 1.00000E+00
 2.00000E+00 1.02546E-01 2.34102E-01 1.00000E+00
 2.20000E+00 8.58237E-02 1.91728E-01 1.00000E+00
 2.40000E+00 8.10146E-02 1.78615E-01 1.00000E+00
 2.60000E+00 8.11473E-02 1.78503E-01 1.00000E+00
 2.80000E+00 8.39160E-02 1.85075E-01 1.00000E+00
 3.00000E+00 8.79649E-02 1.94722E-01 1.00000E+00
 3.20000E+00 9.32964E-02 2.07582E-01 1.00000E+00
 3.40000E+00 9.96619E-02 2.23287E-01 1.00000E+00
 3.60000E+00 1.07275E-01 2.41929E-01 1.00000E+00
 3.80000E+00 1.15429E-01 2.61927E-01 1.00000E+00
 4.00000E+00 1.24946E-01 2.85312E-01 1.00000E+00
 4.20000E+00 1.35980E-01 3.13171E-01 1.00000E+00
 4.40000E+00 1.46284E-01 3.38706E-01 1.00000E+00
 4.60000E+00 1.58709E-01 3.70468E-01 1.00000E+00
 4.80000E+00 1.66426E-01 3.85898E-01 1.00000E+00
 5.00000E+00 1.67720E-01 3.81124E-01 1.00000E+00
 5.20000E+00 1.72876E-01 3.93755E-01 1.00000E+00
 5.40000E+00 1.75094E-01 4.03031E-01 1.00000E+00
 5.60000E+00 1.79107E-01 4.15907E-01 1.00000E+00
 5.80000E+00 1.84377E-01 4.32161E-01 1.00000E+00
 6.00000E+00 1.89719E-01 4.49042E-01 1.00000E+00
 6.20000E+00 1.91939E-01 4.57547E-01 1.00000E+00
 6.40000E+00 1.94012E-01 4.65984E-01 1.00000E+00
 6.60000E+00 1.91069E-01 4.62027E-01 1.00000E+00
 6.80000E+00 1.86968E-01 4.55866E-01 1.00000E+00
 7.00000E+00 1.81289E-01 4.46190E-01 1.00000E+00
 7.20000E+00 1.72332E-01 4.27243E-01 1.00000E+00
 7.40000E+00 1.61254E-01 4.01700E-01 1.00000E+00
 7.60000E+00 1.54996E-01 3.89568E-01 1.00000E+00
 7.80000E+00 1.45814E-01 3.70506E-01 1.00000E+00
 8.00000E+00 1.38438E-01 3.56443E-01 1.00000E+00
 8.50000E+00 1.25732E-01 3.31959E-01 1.00000E+00
 9.00000E+00 1.16660E-01 3.13939E-01 1.00000E+00
 9.50000E+00 1.08850E-01 2.96211E-01 1.00000E+00
 1.00000E+01 2.80147E-01 6.66616E-01 1.00000E+00
 1.20000E+01 4.21442E-01 9.79367E-01 1.00000E+00
 1.40000E+01 6.09900E-01 1.45868E+00 1.00000E+00
 1.60000E+01 6.98559E-01 1.80135E+00 1.00000E+00
 1.80000E+01 6.99278E-01 1.95248E+00 1.00000E+00
 2.00000E+01 6.42745E-01 1.89781E+00 1.00000E+00
