# n +  28Si   : (n,a)             Total
# Q-value    =-2.73224E+00
# E-threshold= 2.83074E+00
# # energies =    50
#     E          xs       gamma xs  xs/res.prod.xs
 1.00000E-01 0.00000E+00 0.00000E+00 0.00000E+00
 2.00000E-01 0.00000E+00 0.00000E+00 0.00000E+00
 4.00000E-01 0.00000E+00 0.00000E+00 0.00000E+00
 6.00000E-01 0.00000E+00 0.00000E+00 0.00000E+00
 8.00000E-01 0.00000E+00 0.00000E+00 0.00000E+00
 1.00000E+00 0.00000E+00 0.00000E+00 0.00000E+00
 1.20000E+00 0.00000E+00 0.00000E+00 0.00000E+00
 1.40000E+00 0.00000E+00 0.00000E+00 0.00000E+00
 1.60000E+00 0.00000E+00 0.00000E+00 0.00000E+00
 1.80000E+00 0.00000E+00 0.00000E+00 0.00000E+00
 2.00000E+00 0.00000E+00 0.00000E+00 0.00000E+00
 2.20000E+00 0.00000E+00 0.00000E+00 0.00000E+00
 2.40000E+00 0.00000E+00 0.00000E+00 0.00000E+00
 2.60000E+00 0.00000E+00 0.00000E+00 0.00000E+00
 2.80000E+00 0.00000E+00 0.00000E+00 0.00000E+00
 3.00000E+00 0.00000E+00 0.00000E+00 0.00000E+00
 3.20000E+00 0.00000E+00 0.00000E+00 0.00000E+00
 3.40000E+00 0.00000E+00 0.00000E+00 0.00000E+00
 3.60000E+00 0.00000E+00 0.00000E+00 0.00000E+00
 3.80000E+00 0.00000E+00 0.00000E+00 0.00000E+00
 4.00000E+00 0.00000E+00 0.00000E+00 0.00000E+00
 4.20000E+00 8.71009E-05 0.00000E+00 0.00000E+00
 4.40000E+00 1.10754E-03 0.00000E+00 1.00000E+00
 4.60000E+00 8.44458E-03 0.00000E+00 1.00000E+00
 4.80000E+00 4.32910E-02 3.36215E-05 1.00000E+00
 5.00000E+00 1.71641E-01 4.29741E-04 1.00000E+00
 5.20000E+00 5.30650E-01 3.16083E-03 1.00000E+00
 5.40000E+00 1.37382E+00 1.61597E-02 1.00000E+00
 5.60000E+00 3.13821E+00 6.79423E-02 1.00000E+00
 5.80000E+00 6.41236E+00 2.22104E-01 1.00000E+00
 6.00000E+00 1.18786E+01 6.17388E-01 1.00000E+00
 6.20000E+00 2.01713E+01 1.49453E+00 1.00000E+00
 6.40000E+00 3.17067E+01 3.21395E+00 1.00000E+00
 6.60000E+00 4.52473E+01 6.15798E+00 1.00000E+00
 6.80000E+00 6.09486E+01 1.07616E+01 1.00000E+00
 7.00000E+00 7.86108E+01 1.72581E+01 1.00000E+00
 7.20000E+00 9.50130E+01 2.55291E+01 1.00000E+00
 7.40000E+00 1.08962E+02 3.50663E+01 9.99999E-01
 7.60000E+00 1.23932E+02 4.65174E+01 9.99999E-01
 7.80000E+00 1.34609E+02 5.75177E+01 9.99999E-01
 8.00000E+00 1.46129E+02 6.99714E+01 9.99998E-01
 8.50000E+00 1.70011E+02 1.04614E+02 9.99997E-01
 9.00000E+00 1.84727E+02 1.40313E+02 9.99994E-01
 9.50000E+00 1.92859E+02 1.75646E+02 9.99990E-01
 1.00000E+01 1.96445E+02 2.08332E+02 9.99983E-01
 1.20000E+01 1.86438E+02 2.78780E+02 9.99927E-01
 1.40000E+01 1.69760E+02 2.90704E+02 9.99817E-01
 1.60000E+01 1.28677E+02 2.38794E+02 9.99603E-01
 1.80000E+01 7.50633E+01 1.46071E+02 9.99088E-01
 2.00000E+01 4.21011E+01 8.40610E+01 9.98132E-01
