# p +  90Zr: proton   DDX spectrum
# E-incident = 120.000
# E-emission =  80.000
# # angles = 19
# Angle    Total       Direct    Pre-equil.  Mult. preeq  Compound
  0.0 4.98173E+00 9.85520E-05 4.74974E+00 2.31883E-01 0.00000E+00
 10.0 4.61566E+00 1.60478E-04 4.40066E+00 2.14841E-01 0.00000E+00
 20.0 3.67949E+00 1.61723E-04 3.50806E+00 1.71264E-01 0.00000E+00
 30.0 2.54106E+00 2.01327E-05 2.42276E+00 1.18279E-01 0.00000E+00
 40.0 1.53757E+00 5.18483E-06 1.46599E+00 7.15699E-02 0.00000E+00
 50.0 8.27683E-01 4.09324E-06 7.89152E-01 3.85265E-02 0.00000E+00
 60.0 4.03897E-01 5.01560E-07 3.85096E-01 1.88004E-02 0.00000E+00
 70.0 1.82611E-01 3.04763E-07 1.74111E-01 8.50010E-03 0.00000E+00
 80.0 7.83620E-02 1.33728E-07 7.47143E-02 3.64756E-03 0.00000E+00
 90.0 3.27469E-02 2.35726E-08 3.12226E-02 1.52429E-03 0.00000E+00
100.0 1.36847E-02 1.93576E-08 1.30477E-02 6.36989E-04 0.00000E+00
110.0 5.87237E-03 3.05379E-09 5.59902E-03 2.73345E-04 0.00000E+00
120.0 2.65503E-03 2.49146E-09 2.53144E-03 1.23585E-04 0.00000E+00
130.0 1.29562E-03 4.34736E-10 1.23531E-03 6.03081E-05 0.00000E+00
140.0 6.97440E-04 4.24610E-10 6.64975E-04 3.24642E-05 0.00000E+00
150.0 4.22015E-04 9.09349E-11 4.02371E-04 1.96438E-05 0.00000E+00
160.0 2.91455E-04 9.14530E-11 2.77888E-04 1.35665E-05 0.00000E+00
170.0 2.32339E-04 4.94908E-11 2.21524E-04 1.08148E-05 0.00000E+00
180.0 2.15263E-04 8.85023E-12 2.05243E-04 1.00200E-05 0.00000E+00
