# n + Pb208   : (n,a)             Total
# Q-value    = 6.18561E+00
# E-threshold= 0.00000E+00
# # energies =    46
#     E          xs       gamma xs  xs/res.prod.xs
 1.00000E+00 1.00000E-07 1.00000E-07 0.00000E+00
 1.20000E+00 1.00000E-07 1.00000E-07 0.00000E+00
 1.40000E+00 1.00000E-07 1.00000E-07 0.00000E+00
 1.60000E+00 1.00000E-07 1.00000E-07 0.00000E+00
 1.80000E+00 1.00000E-07 1.00000E-07 0.00000E+00
 2.00000E+00 1.00000E-07 1.00000E-07 0.00000E+00
 2.20000E+00 1.00000E-07 1.00000E-07 0.00000E+00
 2.40000E+00 1.00000E-07 1.00000E-07 0.00000E+00
 2.60000E+00 1.00000E-07 1.00000E-07 0.00000E+00
 2.80000E+00 1.00000E-07 1.00000E-07 0.00000E+00
 3.00000E+00 1.00000E-07 1.00000E-07 0.00000E+00
 3.20000E+00 1.00000E-07 1.00000E-07 0.00000E+00
 3.40000E+00 1.00000E-07 1.00000E-07 0.00000E+00
 3.60000E+00 1.00000E-07 1.00000E-07 0.00000E+00
 3.80000E+00 1.00000E-07 1.00000E-07 0.00000E+00
 4.00000E+00 1.00000E-07 1.00000E-07 0.00000E+00
 4.20000E+00 1.00000E-07 1.00000E-07 0.00000E+00
 4.40000E+00 1.00000E-07 1.00000E-07 0.00000E+00
 4.60000E+00 1.00000E-07 1.00000E-07 0.00000E+00
 4.80000E+00 1.00000E-07 1.00000E-07 0.00000E+00
 5.00000E+00 1.00000E-07 1.00000E-07 0.00000E+00
 5.50000E+00 1.00000E-07 1.00000E-07 0.00000E+00
 6.00000E+00 2.90676E-06 0.00000E+00 0.00000E+00
 6.50000E+00 7.57443E-06 0.00000E+00 0.00000E+00
 7.00000E+00 1.93387E-05 0.00000E+00 0.00000E+00
 7.50000E+00 4.41386E-05 0.00000E+00 0.00000E+00
 8.00000E+00 8.96025E-05 0.00000E+00 0.00000E+00
 8.50000E+00 1.64286E-04 0.00000E+00 0.00000E+00
 9.00000E+00 2.76462E-04 0.00000E+00 0.00000E+00
 9.50000E+00 1.71794E-03 2.00550E-03 9.99991E-01
 1.00000E+01 2.86023E-03 3.72918E-03 9.99988E-01
 1.10000E+01 6.77271E-03 1.08231E-02 9.99981E-01
 1.20000E+01 1.34597E-02 2.60361E-02 9.99972E-01
 1.30000E+01 2.38727E-02 5.53307E-02 9.99963E-01
 1.40000E+01 4.08519E-02 1.10822E-01 9.99956E-01
 1.50000E+01 7.52988E-02 2.23213E-01 9.99957E-01
 1.60000E+01 1.38429E-01 4.36905E-01 9.99963E-01
 1.70000E+01 2.44351E-01 8.19936E-01 9.99970E-01
 1.80000E+01 4.02387E-01 1.42824E+00 9.99976E-01
 1.90000E+01 6.15754E-01 2.30036E+00 9.99980E-01
 2.00000E+01 8.70877E-01 3.39779E+00 9.99983E-01
 2.20000E+01 1.41827E+00 5.93025E+00 9.99987E-01
 2.40000E+01 2.06124E+00 8.87671E+00 9.99990E-01
 2.60000E+01 2.30483E+00 1.01020E+01 9.99990E-01
 2.80000E+01 1.84111E+00 8.19514E+00 9.99986E-01
 3.00000E+01 1.47307E+00 6.65388E+00 9.99938E-01
