# n + Pb208   : (n,na)            Total
# Q-value    = 5.16717E-01
# E-threshold= 0.00000E+00
# # energies =    46
#     E          xs       gamma xs  xs/res.prod.xs
 1.00000E+00 1.00000E-07 1.00000E-07 0.00000E+00
 1.20000E+00 1.00000E-07 1.00000E-07 0.00000E+00
 1.40000E+00 1.00000E-07 1.00000E-07 0.00000E+00
 1.60000E+00 1.00000E-07 1.00000E-07 0.00000E+00
 1.80000E+00 1.00000E-07 1.00000E-07 0.00000E+00
 2.00000E+00 1.00000E-07 1.00000E-07 0.00000E+00
 2.20000E+00 1.00000E-07 1.00000E-07 0.00000E+00
 2.40000E+00 1.00000E-07 1.00000E-07 0.00000E+00
 2.60000E+00 1.00000E-07 1.00000E-07 0.00000E+00
 2.80000E+00 1.00000E-07 1.00000E-07 0.00000E+00
 3.00000E+00 1.00000E-07 1.00000E-07 0.00000E+00
 3.20000E+00 1.00000E-07 1.00000E-07 0.00000E+00
 3.40000E+00 1.00000E-07 1.00000E-07 0.00000E+00
 3.60000E+00 1.00000E-07 1.00000E-07 0.00000E+00
 3.80000E+00 1.00000E-07 1.00000E-07 0.00000E+00
 4.00000E+00 1.00000E-07 1.00000E-07 0.00000E+00
 4.20000E+00 1.00000E-07 1.00000E-07 0.00000E+00
 4.40000E+00 1.00000E-07 1.00000E-07 0.00000E+00
 4.60000E+00 1.00000E-07 1.00000E-07 0.00000E+00
 4.80000E+00 1.00000E-07 1.00000E-07 0.00000E+00
 5.00000E+00 1.00000E-07 1.00000E-07 0.00000E+00
 5.50000E+00 1.00000E-07 1.00000E-07 0.00000E+00
 6.00000E+00 1.00000E-07 1.00000E-07 0.00000E+00
 6.50000E+00 1.00000E-07 1.00000E-07 0.00000E+00
 7.00000E+00 1.00000E-07 1.00000E-07 0.00000E+00
 7.50000E+00 1.00000E-07 1.00000E-07 0.00000E+00
 8.00000E+00 1.00000E-07 1.00000E-07 0.00000E+00
 8.50000E+00 1.00000E-07 1.00000E-07 0.00000E+00
 9.00000E+00 1.00000E-07 1.00000E-07 0.00000E+00
 9.50000E+00 1.00000E-07 1.00000E-07 0.00000E+00
 1.00000E+01 1.00000E-07 1.00000E-07 0.00000E+00
 1.10000E+01 1.00000E-07 1.00000E-07 0.00000E+00
 1.20000E+01 2.56174E-06 4.23186E-09 0.00000E+00
 1.30000E+01 2.57033E-05 1.62657E-07 0.00000E+00
 1.40000E+01 1.27330E-04 1.43133E-06 0.00000E+00
 1.50000E+01 1.85359E-03 2.11542E-03 9.99995E-01
 1.60000E+01 6.37722E-03 8.44609E-03 9.99992E-01
 1.70000E+01 1.77916E-02 2.73569E-02 9.99990E-01
 1.80000E+01 4.83922E-02 8.27823E-02 9.99988E-01
 1.90000E+01 1.14478E-01 2.12068E-01 9.99987E-01
 2.00000E+01 2.43559E-01 4.93632E-01 9.99986E-01
 2.20000E+01 8.69617E-01 2.12142E+00 9.99987E-01
 2.40000E+01 2.20914E+00 6.39926E+00 9.99987E-01
 2.60000E+01 4.06712E+00 1.35371E+01 9.99986E-01
 2.80000E+01 5.00911E+00 1.84805E+01 9.99982E-01
 3.00000E+01 5.31672E+00 2.10519E+01 9.99975E-01
