# n + Pb208   : (n,2n)            Total
# Q-value    =-7.36787E+00
# E-threshold= 7.40361E+00
# # energies =    46
#     E          xs       gamma xs  xs/res.prod.xs
 1.00000E+00 0.00000E+00 0.00000E+00 0.00000E+00
 1.20000E+00 0.00000E+00 0.00000E+00 0.00000E+00
 1.40000E+00 0.00000E+00 0.00000E+00 0.00000E+00
 1.60000E+00 0.00000E+00 0.00000E+00 0.00000E+00
 1.80000E+00 0.00000E+00 0.00000E+00 0.00000E+00
 2.00000E+00 0.00000E+00 0.00000E+00 0.00000E+00
 2.20000E+00 0.00000E+00 0.00000E+00 0.00000E+00
 2.40000E+00 0.00000E+00 0.00000E+00 0.00000E+00
 2.60000E+00 0.00000E+00 0.00000E+00 0.00000E+00
 2.80000E+00 0.00000E+00 0.00000E+00 0.00000E+00
 3.00000E+00 0.00000E+00 0.00000E+00 0.00000E+00
 3.20000E+00 0.00000E+00 0.00000E+00 0.00000E+00
 3.40000E+00 0.00000E+00 0.00000E+00 0.00000E+00
 3.60000E+00 0.00000E+00 0.00000E+00 0.00000E+00
 3.80000E+00 0.00000E+00 0.00000E+00 0.00000E+00
 4.00000E+00 0.00000E+00 0.00000E+00 0.00000E+00
 4.20000E+00 0.00000E+00 0.00000E+00 0.00000E+00
 4.40000E+00 0.00000E+00 0.00000E+00 0.00000E+00
 4.60000E+00 0.00000E+00 0.00000E+00 0.00000E+00
 4.80000E+00 0.00000E+00 0.00000E+00 0.00000E+00
 5.00000E+00 0.00000E+00 0.00000E+00 0.00000E+00
 5.50000E+00 0.00000E+00 0.00000E+00 0.00000E+00
 6.00000E+00 0.00000E+00 0.00000E+00 0.00000E+00
 6.50000E+00 0.00000E+00 0.00000E+00 0.00000E+00
 7.00000E+00 0.00000E+00 0.00000E+00 0.00000E+00
 7.50000E+00 4.87706E+00 1.08503E-05 1.00000E+00
 8.00000E+00 1.10398E+02 4.24977E-01 1.00000E+00
 8.50000E+00 3.39287E+02 9.89379E+01 9.99998E-01
 9.00000E+00 6.46857E+02 3.41321E+02 9.99995E-01
 9.50000E+00 9.82246E+02 7.03287E+02 9.99989E-01
 1.00000E+01 1.30300E+03 1.15058E+03 9.99979E-01
 1.10000E+01 1.78478E+03 2.12224E+03 9.99942E-01
 1.20000E+01 2.04597E+03 3.24199E+03 9.99881E-01
 1.30000E+01 2.17444E+03 4.42944E+03 9.99804E-01
 1.40000E+01 2.24269E+03 5.56659E+03 9.99721E-01
 1.50000E+01 2.27255E+03 6.52983E+03 9.99642E-01
 1.60000E+01 2.22909E+03 7.17049E+03 9.99568E-01
 1.70000E+01 2.06089E+03 7.24057E+03 9.99483E-01
 1.80000E+01 1.76708E+03 6.60838E+03 9.99352E-01
 1.90000E+01 1.41029E+03 5.44810E+03 9.99143E-01
 2.00000E+01 1.08289E+03 4.19513E+03 9.98832E-01
 2.20000E+01 6.71581E+02 2.47438E+03 9.97910E-01
 2.40000E+01 5.01603E+02 1.75530E+03 9.96705E-01
 2.60000E+01 4.24504E+02 1.45873E+03 9.95653E-01
 2.80000E+01 3.76485E+02 1.29734E+03 9.94951E-01
 3.00000E+01 3.44997E+02 1.19091E+03 9.94850E-01
