# n + 232Th   : (n,n')            Total
# Q-value    = 0.00000E+00
# E-threshold= 4.95836E-02
# # energies = 57
#    E         xs       gamma xs  xs/res.prod.xs
 1.000E-11 0.00000E+00 0.00000E+00 0.00000E+00
 2.530E-08 0.00000E+00 0.00000E+00 0.00000E+00
 2.000E-07 0.00000E+00 0.00000E+00 0.00000E+00
 1.000E-06 0.00000E+00 0.00000E+00 0.00000E+00
 1.000E-05 0.00000E+00 0.00000E+00 0.00000E+00
 1.000E-04 0.00000E+00 0.00000E+00 0.00000E+00
 1.000E-03 0.00000E+00 0.00000E+00 0.00000E+00
 2.000E-03 0.00000E+00 0.00000E+00 0.00000E+00
 5.000E-03 0.00000E+00 0.00000E+00 0.00000E+00
 1.000E-02 0.00000E+00 0.00000E+00 0.00000E+00
 2.000E-02 0.00000E+00 0.00000E+00 0.00000E+00
 5.000E-02 1.20446E-01 1.20446E-01 9.56346E-01
 1.000E-01 3.19819E+02 3.19819E+02 9.99968E-01
 2.000E-01 7.11968E+02 7.13918E+02 9.99810E-01
 4.000E-01 1.22671E+03 1.27548E+03 9.99056E-01
 6.000E-01 1.59993E+03 1.76726E+03 9.96590E-01
 8.000E-01 2.03025E+03 2.55861E+03 9.93225E-01
 1.000E+00 2.52631E+03 3.76068E+03 9.90965E-01
 1.200E+00 2.83875E+03 4.65086E+03 9.87617E-01
 1.400E+00 3.03666E+03 5.36258E+03 9.84254E-01
 1.600E+00 3.11883E+03 5.84452E+03 9.80276E-01
 1.800E+00 3.16192E+03 6.23915E+03 9.75784E-01
 2.000E+00 3.21607E+03 6.65587E+03 9.70767E-01
 2.200E+00 3.24184E+03 7.01152E+03 9.65415E-01
 2.400E+00 3.22813E+03 7.27164E+03 9.59392E-01
 2.600E+00 3.18407E+03 7.45179E+03 9.53314E-01
 2.800E+00 3.12268E+03 7.58186E+03 9.47314E-01
 3.000E+00 3.05505E+03 7.68865E+03 9.41140E-01
 3.500E+00 3.03145E+03 8.26921E+03 9.28065E-01
 4.000E+00 2.93224E+03 8.62545E+03 9.18836E-01
 4.500E+00 2.83274E+03 8.96870E+03 9.13175E-01
 5.000E+00 2.73626E+03 9.28801E+03 9.11755E-01
 5.500E+00 2.65229E+03 9.60662E+03 9.14589E-01
 6.000E+00 2.70435E+03 1.07062E+04 9.51477E-01
 6.500E+00 2.67125E+03 1.12610E+04 9.76789E-01
 7.000E+00 2.33836E+03 1.01036E+04 9.83624E-01
 7.500E+00 1.90047E+03 8.13595E+03 9.85264E-01
 8.000E+00 1.60002E+03 6.76030E+03 9.86521E-01
 8.500E+00 1.41840E+03 5.96670E+03 9.88027E-01
 9.000E+00 1.28033E+03 5.35228E+03 9.89523E-01
 9.500E+00 1.18251E+03 4.94744E+03 9.91007E-01
 1.000E+01 1.08960E+03 4.52398E+03 9.92312E-01
 1.050E+01 1.01378E+03 4.18219E+03 9.93455E-01
 1.100E+01 9.51603E+02 3.90458E+03 9.94407E-01
 1.150E+01 8.99434E+02 3.68010E+03 9.95152E-01
 1.200E+01 8.52742E+02 3.47687E+03 9.95720E-01
 1.250E+01 8.01038E+02 3.21391E+03 9.96141E-01
 1.300E+01 7.53957E+02 2.97526E+03 9.96390E-01
 1.350E+01 7.21556E+02 2.85033E+03 9.96460E-01
 1.400E+01 6.81752E+02 2.65577E+03 9.96482E-01
 1.450E+01 6.45607E+02 2.48610E+03 9.96432E-01
 1.500E+01 6.13223E+02 2.34095E+03 9.96342E-01
 1.600E+01 5.52561E+02 2.06156E+03 9.96134E-01
 1.700E+01 5.15349E+02 1.93830E+03 9.95879E-01
 1.800E+01 4.76795E+02 1.78054E+03 9.95683E-01
 1.900E+01 4.45237E+02 1.65765E+03 9.95611E-01
 2.000E+01 4.15675E+02 1.53091E+03 9.95749E-01
