# n + 232Th   : (n,n')            Total
# Q-value    = 0.00000E+00
# E-threshold= 4.95836E-02
# # energies = 57
#    E         xs       gamma xs  xs/res.prod.xs
 1.000E-11 0.00000E+00 0.00000E+00 0.00000E+00
 2.530E-08 0.00000E+00 0.00000E+00 0.00000E+00
 2.000E-07 0.00000E+00 0.00000E+00 0.00000E+00
 1.000E-06 0.00000E+00 0.00000E+00 0.00000E+00
 1.000E-05 0.00000E+00 0.00000E+00 0.00000E+00
 1.000E-04 0.00000E+00 0.00000E+00 0.00000E+00
 1.000E-03 0.00000E+00 0.00000E+00 0.00000E+00
 2.000E-03 0.00000E+00 0.00000E+00 0.00000E+00
 5.000E-03 0.00000E+00 0.00000E+00 0.00000E+00
 1.000E-02 0.00000E+00 0.00000E+00 0.00000E+00
 2.000E-02 0.00000E+00 0.00000E+00 0.00000E+00
 5.000E-02 1.20446E-01 1.20446E-01 2.60446E-01
 1.000E-01 3.18388E+02 3.18388E+02 9.97837E-01
 2.000E-01 7.10336E+02 7.12261E+02 9.98812E-01
 4.000E-01 1.22459E+03 1.27311E+03 9.99071E-01
 6.000E-01 1.59709E+03 1.76384E+03 9.93108E-01
 8.000E-01 2.02508E+03 2.54622E+03 9.90507E-01
 1.000E+00 2.52129E+03 3.76804E+03 9.89151E-01
 1.200E+00 2.86677E+03 4.93393E+03 9.84396E-01
 1.400E+00 3.07832E+03 5.85172E+03 9.83659E-01
 1.600E+00 3.16028E+03 6.34683E+03 9.80374E-01
 1.800E+00 3.20002E+03 6.69332E+03 9.74794E-01
 2.000E+00 3.24642E+03 7.04622E+03 9.70328E-01
 2.200E+00 3.26421E+03 7.34047E+03 9.65986E-01
 2.400E+00 3.24368E+03 7.54708E+03 9.58919E-01
 2.600E+00 3.19399E+03 7.68270E+03 9.51710E-01
 2.800E+00 3.12795E+03 7.77725E+03 9.45644E-01
 3.000E+00 3.05668E+03 7.85773E+03 9.39642E-01
 3.500E+00 3.02711E+03 8.39140E+03 9.24590E-01
 4.000E+00 2.92276E+03 8.70733E+03 9.14902E-01
 4.500E+00 2.82282E+03 9.02030E+03 9.08661E-01
 5.000E+00 2.72477E+03 9.31838E+03 9.07136E-01
 5.500E+00 2.64447E+03 9.62748E+03 9.10158E-01
 6.000E+00 2.71287E+03 1.08035E+04 9.50567E-01
 6.500E+00 2.66493E+03 1.12800E+04 9.76303E-01
 7.000E+00 2.29950E+03 9.91002E+03 9.82609E-01
 7.500E+00 1.86659E+03 7.94136E+03 9.84393E-01
 8.000E+00 1.60618E+03 6.80560E+03 9.86185E-01
 8.500E+00 1.41621E+03 5.95002E+03 9.87816E-01
 9.000E+00 1.25689E+03 5.17272E+03 9.89430E-01
 9.500E+00 1.16744E+03 4.82092E+03 9.91031E-01
 1.000E+01 1.07269E+03 4.37883E+03 9.92413E-01
 1.050E+01 1.01186E+03 4.14080E+03 9.93607E-01
 1.100E+01 9.44001E+02 3.82334E+03 9.94563E-01
 1.150E+01 8.87683E+02 3.56385E+03 9.95305E-01
 1.200E+01 8.34452E+02 3.30906E+03 9.95888E-01
 1.250E+01 7.89825E+02 3.08942E+03 9.96271E-01
 1.300E+01 7.47077E+02 2.88740E+03 9.96501E-01
 1.350E+01 7.09877E+02 2.71814E+03 9.96568E-01
 1.400E+01 6.65530E+02 2.48517E+03 9.96603E-01
 1.450E+01 6.33703E+02 2.34728E+03 9.96538E-01
 1.500E+01 6.05520E+02 2.23707E+03 9.96448E-01
 1.600E+01 5.49866E+02 2.00221E+03 9.96210E-01
 1.700E+01 5.10448E+02 1.85843E+03 9.95981E-01
 1.800E+01 4.76061E+02 1.73538E+03 9.95790E-01
 1.900E+01 4.47407E+02 1.63775E+03 9.95787E-01
 2.000E+01 4.20708E+02 1.53485E+03 9.95912E-01
