# n + 232Th   : (n,n')            Total
# Q-value    = 0.00000E+00
# E-threshold= 4.95836E-02
# # energies =    57
#     E          xs       gamma xs  xs/res.prod.xs
 1.00000E-11 0.00000E+00 0.00000E+00 0.00000E+00
 2.53000E-08 0.00000E+00 0.00000E+00 0.00000E+00
 2.00000E-07 0.00000E+00 0.00000E+00 0.00000E+00
 1.00000E-06 0.00000E+00 0.00000E+00 0.00000E+00
 1.00000E-05 0.00000E+00 0.00000E+00 0.00000E+00
 1.00000E-04 0.00000E+00 0.00000E+00 0.00000E+00
 1.00000E-03 0.00000E+00 0.00000E+00 0.00000E+00
 2.00000E-03 0.00000E+00 0.00000E+00 0.00000E+00
 5.00000E-03 0.00000E+00 0.00000E+00 0.00000E+00
 1.00000E-02 0.00000E+00 0.00000E+00 0.00000E+00
 2.00000E-02 0.00000E+00 0.00000E+00 0.00000E+00
 5.00000E-02 1.20446E-01 1.20446E-01 2.60031E-01
 1.00000E-01 3.18471E+02 3.18471E+02 9.97835E-01
 2.00000E-01 7.10425E+02 7.12351E+02 9.98811E-01
 4.00000E-01 1.22469E+03 1.27322E+03 9.99071E-01
 6.00000E-01 1.59720E+03 1.76398E+03 9.93103E-01
 8.00000E-01 2.02522E+03 2.54642E+03 9.90504E-01
 1.00000E+00 2.52142E+03 3.76852E+03 9.89146E-01
 1.20000E+00 2.86688E+03 4.93193E+03 9.84391E-01
 1.40000E+00 3.07844E+03 5.84866E+03 9.83657E-01
 1.60000E+00 3.16715E+03 6.36739E+03 9.80725E-01
 1.80000E+00 3.20912E+03 6.71889E+03 9.75410E-01
 2.00000E+00 3.25585E+03 7.07185E+03 9.71101E-01
 2.20000E+00 3.27375E+03 7.36508E+03 9.66908E-01
 2.40000E+00 3.25393E+03 7.57174E+03 9.60121E-01
 2.60000E+00 3.20523E+03 7.70753E+03 9.53245E-01
 2.80000E+00 3.13974E+03 7.80078E+03 9.47427E-01
 3.00000E+00 3.06846E+03 7.87862E+03 9.41575E-01
 3.50000E+00 3.03753E+03 8.40512E+03 9.26534E-01
 4.00000E+00 2.93164E+03 8.71438E+03 9.16693E-01
 4.50000E+00 2.83058E+03 9.02230E+03 9.10318E-01
 5.00000E+00 2.73165E+03 9.31567E+03 9.08651E-01
 5.50000E+00 2.65071E+03 9.61924E+03 9.11540E-01
 6.00000E+00 2.71715E+03 1.07806E+04 9.51312E-01
 6.50000E+00 2.66951E+03 1.12506E+04 9.76677E-01
 7.00000E+00 2.30936E+03 9.90115E+03 9.82935E-01
 7.50000E+00 1.88282E+03 7.96414E+03 9.84756E-01
 8.00000E+00 1.62582E+03 6.84715E+03 9.86553E-01
 8.50000E+00 1.43753E+03 6.00410E+03 9.88169E-01
 9.00000E+00 1.27871E+03 5.23460E+03 9.89755E-01
 9.50000E+00 1.18854E+03 4.88372E+03 9.91307E-01
 1.00000E+01 1.09302E+03 4.44248E+03 9.92648E-01
 1.05000E+01 1.03112E+03 4.20265E+03 9.93801E-01
 1.10000E+01 9.62393E+02 3.88437E+03 9.94727E-01
 1.15000E+01 9.05289E+02 3.62364E+03 9.95445E-01
 1.20000E+01 8.51316E+02 3.36723E+03 9.96011E-01
 1.25000E+01 8.06024E+02 3.14615E+03 9.96382E-01
 1.30000E+01 7.62550E+02 2.94192E+03 9.96604E-01
 1.35000E+01 7.24727E+02 2.77125E+03 9.96668E-01
 1.40000E+01 6.79750E+02 2.53653E+03 9.96702E-01
 1.45000E+01 6.47290E+02 2.39658E+03 9.96638E-01
 1.50000E+01 6.18502E+02 2.28436E+03 9.96550E-01
 1.60000E+01 5.61738E+02 2.04573E+03 9.96317E-01
 1.70000E+01 5.21390E+02 1.89856E+03 9.96091E-01
 1.80000E+01 4.86247E+02 1.77249E+03 9.95904E-01
 1.90000E+01 4.56986E+02 1.67278E+03 9.95899E-01
 2.00000E+01 4.29705E+02 1.56777E+03 9.96019E-01
