# n + 232Th   : (n,2n)            Total
# Q-value    =-6.44029E+00
# E-threshold= 6.46829E+00
# # energies = 57
#    E         xs       gamma xs  xs/res.prod.xs
 1.000E-11 0.00000E+00 0.00000E+00 0.00000E+00
 2.530E-08 0.00000E+00 0.00000E+00 0.00000E+00
 2.000E-07 0.00000E+00 0.00000E+00 0.00000E+00
 1.000E-06 0.00000E+00 0.00000E+00 0.00000E+00
 1.000E-05 0.00000E+00 0.00000E+00 0.00000E+00
 1.000E-04 0.00000E+00 0.00000E+00 0.00000E+00
 1.000E-03 0.00000E+00 0.00000E+00 0.00000E+00
 2.000E-03 0.00000E+00 0.00000E+00 0.00000E+00
 5.000E-03 0.00000E+00 0.00000E+00 0.00000E+00
 1.000E-02 0.00000E+00 0.00000E+00 0.00000E+00
 2.000E-02 0.00000E+00 0.00000E+00 0.00000E+00
 5.000E-02 0.00000E+00 0.00000E+00 0.00000E+00
 1.000E-01 0.00000E+00 0.00000E+00 0.00000E+00
 2.000E-01 0.00000E+00 0.00000E+00 0.00000E+00
 4.000E-01 0.00000E+00 0.00000E+00 0.00000E+00
 6.000E-01 0.00000E+00 0.00000E+00 0.00000E+00
 8.000E-01 0.00000E+00 0.00000E+00 0.00000E+00
 1.000E+00 0.00000E+00 0.00000E+00 0.00000E+00
 1.200E+00 0.00000E+00 0.00000E+00 0.00000E+00
 1.400E+00 0.00000E+00 0.00000E+00 0.00000E+00
 1.600E+00 0.00000E+00 0.00000E+00 0.00000E+00
 1.800E+00 0.00000E+00 0.00000E+00 0.00000E+00
 2.000E+00 0.00000E+00 0.00000E+00 0.00000E+00
 2.200E+00 0.00000E+00 0.00000E+00 0.00000E+00
 2.400E+00 0.00000E+00 0.00000E+00 0.00000E+00
 2.600E+00 0.00000E+00 0.00000E+00 0.00000E+00
 2.800E+00 0.00000E+00 0.00000E+00 0.00000E+00
 3.000E+00 0.00000E+00 0.00000E+00 0.00000E+00
 3.500E+00 0.00000E+00 0.00000E+00 0.00000E+00
 4.000E+00 0.00000E+00 0.00000E+00 0.00000E+00
 4.500E+00 0.00000E+00 0.00000E+00 0.00000E+00
 5.000E+00 0.00000E+00 0.00000E+00 0.00000E+00
 5.500E+00 0.00000E+00 0.00000E+00 0.00000E+00
 6.000E+00 0.00000E+00 0.00000E+00 0.00000E+00
 6.500E+00 1.25551E+00 0.00000E+00 9.99995E-01
 7.000E+00 2.09923E+02 2.20289E+02 9.99977E-01
 7.500E+00 6.18137E+02 9.10463E+02 9.99873E-01
 8.000E+00 9.57570E+02 1.75062E+03 9.99656E-01
 8.500E+00 1.17689E+03 2.55498E+03 9.99375E-01
 9.000E+00 1.33146E+03 3.32832E+03 9.99055E-01
 9.500E+00 1.43605E+03 4.05190E+03 9.98777E-01
 1.000E+01 1.52501E+03 4.76929E+03 9.98539E-01
 1.050E+01 1.59599E+03 5.46763E+03 9.98378E-01
 1.100E+01 1.65581E+03 6.14871E+03 9.98287E-01
 1.150E+01 1.70878E+03 6.82691E+03 9.98254E-01
 1.200E+01 1.75412E+03 7.48887E+03 9.98260E-01
 1.250E+01 1.77468E+03 8.03904E+03 9.98251E-01
 1.300E+01 1.71846E+03 8.20604E+03 9.98189E-01
 1.350E+01 1.57833E+03 7.88291E+03 9.98080E-01
 1.400E+01 1.39541E+03 7.00260E+03 9.97880E-01
 1.450E+01 1.20866E+03 6.21547E+03 9.97640E-01
 1.500E+01 1.03101E+03 5.40433E+03 9.97372E-01
 1.600E+01 7.71688E+02 4.15225E+03 9.96899E-01
 1.700E+01 5.99376E+02 3.26398E+03 9.96630E-01
 1.800E+01 4.90061E+02 2.67633E+03 9.96479E-01
 1.900E+01 4.18434E+02 2.27540E+03 9.96339E-01
 2.000E+01 3.84886E+02 2.05222E+03 9.96104E-01
