# n + 232Th   : (n,2n)            Total
# Q-value    =-6.44015E+00
# E-threshold= 6.46815E+00
# # energies = 57
#    E         xs       gamma xs  xs/res.prod.xs
 1.000E-11 0.00000E+00 0.00000E+00 0.00000E+00
 2.530E-08 0.00000E+00 0.00000E+00 0.00000E+00
 2.000E-07 0.00000E+00 0.00000E+00 0.00000E+00
 1.000E-06 0.00000E+00 0.00000E+00 0.00000E+00
 1.000E-05 0.00000E+00 0.00000E+00 0.00000E+00
 1.000E-04 0.00000E+00 0.00000E+00 0.00000E+00
 1.000E-03 0.00000E+00 0.00000E+00 0.00000E+00
 2.000E-03 0.00000E+00 0.00000E+00 0.00000E+00
 5.000E-03 0.00000E+00 0.00000E+00 0.00000E+00
 1.000E-02 0.00000E+00 0.00000E+00 0.00000E+00
 2.000E-02 0.00000E+00 0.00000E+00 0.00000E+00
 5.000E-02 0.00000E+00 0.00000E+00 0.00000E+00
 1.000E-01 0.00000E+00 0.00000E+00 0.00000E+00
 2.000E-01 0.00000E+00 0.00000E+00 0.00000E+00
 4.000E-01 0.00000E+00 0.00000E+00 0.00000E+00
 6.000E-01 0.00000E+00 0.00000E+00 0.00000E+00
 8.000E-01 0.00000E+00 0.00000E+00 0.00000E+00
 1.000E+00 0.00000E+00 0.00000E+00 0.00000E+00
 1.200E+00 0.00000E+00 0.00000E+00 0.00000E+00
 1.400E+00 0.00000E+00 0.00000E+00 0.00000E+00
 1.600E+00 0.00000E+00 0.00000E+00 0.00000E+00
 1.800E+00 0.00000E+00 0.00000E+00 0.00000E+00
 2.000E+00 0.00000E+00 0.00000E+00 0.00000E+00
 2.200E+00 0.00000E+00 0.00000E+00 0.00000E+00
 2.400E+00 0.00000E+00 0.00000E+00 0.00000E+00
 2.600E+00 0.00000E+00 0.00000E+00 0.00000E+00
 2.800E+00 0.00000E+00 0.00000E+00 0.00000E+00
 3.000E+00 0.00000E+00 0.00000E+00 0.00000E+00
 3.500E+00 0.00000E+00 0.00000E+00 0.00000E+00
 4.000E+00 0.00000E+00 0.00000E+00 0.00000E+00
 4.500E+00 0.00000E+00 0.00000E+00 0.00000E+00
 5.000E+00 0.00000E+00 0.00000E+00 0.00000E+00
 5.500E+00 0.00000E+00 0.00000E+00 0.00000E+00
 6.000E+00 0.00000E+00 0.00000E+00 0.00000E+00
 6.500E+00 2.61069E+00 0.00000E+00 9.99438E-01
 7.000E+00 2.50056E+02 2.74632E+02 9.99407E-01
 7.500E+00 6.55744E+02 9.93652E+02 9.99268E-01
 8.000E+00 9.65208E+02 1.79372E+03 9.99205E-01
 8.500E+00 1.18951E+03 2.61845E+03 9.98882E-01
 9.000E+00 1.35800E+03 3.44244E+03 9.98440E-01
 9.500E+00 1.45655E+03 4.16226E+03 9.98204E-01
 1.000E+01 1.54829E+03 4.91396E+03 9.98022E-01
 1.050E+01 1.61059E+03 5.59945E+03 9.97909E-01
 1.100E+01 1.67544E+03 6.32276E+03 9.97860E-01
 1.150E+01 1.73245E+03 7.04448E+03 9.97878E-01
 1.200E+01 1.77571E+03 7.72544E+03 9.97904E-01
 1.250E+01 1.74968E+03 8.08488E+03 9.97897E-01
 1.300E+01 1.63611E+03 7.95284E+03 9.97801E-01
 1.350E+01 1.46098E+03 7.43027E+03 9.97638E-01
 1.400E+01 1.26238E+03 6.64647E+03 9.97372E-01
 1.450E+01 1.08097E+03 5.86015E+03 9.97113E-01
 1.500E+01 9.11494E+02 5.06134E+03 9.96835E-01
 1.600E+01 6.70723E+02 3.84418E+03 9.96400E-01
 1.700E+01 5.17539E+02 3.00414E+03 9.96202E-01
 1.800E+01 4.18990E+02 2.45126E+03 9.96102E-01
 1.900E+01 3.55949E+02 2.07539E+03 9.95979E-01
 2.000E+01 3.33065E+02 1.92130E+03 9.95728E-01
