# n + 208Pb: Gamma-ray intensity - 207Pb: Level  7 --> Level  4 - gamma energy    0.362079
# E-initial  =   2.702000 E-final=   2.339921
# E-threshold= 1.01187E+01
# # energies =    67
#    E           xs
 1.00000E-11 0.00000E+00
 2.53000E-08 0.00000E+00
 2.00000E-07 0.00000E+00
 1.00000E-06 0.00000E+00
 1.00000E-03 0.00000E+00
 2.00000E-03 0.00000E+00
 5.00000E-03 0.00000E+00
 1.00000E-02 0.00000E+00
 2.00000E-02 0.00000E+00
 5.00000E-02 0.00000E+00
 1.00000E-01 0.00000E+00
 2.00000E-01 0.00000E+00
 3.00000E-01 0.00000E+00
 4.00000E-01 0.00000E+00
 5.00000E-01 0.00000E+00
 7.50000E-01 0.00000E+00
 1.00000E+00 0.00000E+00
 1.20000E+00 0.00000E+00
 1.40000E+00 0.00000E+00
 1.60000E+00 0.00000E+00
 1.80000E+00 0.00000E+00
 2.00000E+00 0.00000E+00
 2.20000E+00 0.00000E+00
 2.40000E+00 0.00000E+00
 2.60000E+00 0.00000E+00
 2.80000E+00 0.00000E+00
 3.00000E+00 0.00000E+00
 3.20000E+00 0.00000E+00
 3.40000E+00 0.00000E+00
 3.60000E+00 0.00000E+00
 3.80000E+00 0.00000E+00
 4.00000E+00 0.00000E+00
 4.20000E+00 0.00000E+00
 4.40000E+00 0.00000E+00
 4.60000E+00 0.00000E+00
 4.80000E+00 0.00000E+00
 5.00000E+00 0.00000E+00
 5.50000E+00 0.00000E+00
 6.00000E+00 0.00000E+00
 6.50000E+00 0.00000E+00
 7.00000E+00 0.00000E+00
 7.50000E+00 0.00000E+00
 8.00000E+00 0.00000E+00
 8.50000E+00 0.00000E+00
 9.00000E+00 0.00000E+00
 9.50000E+00 0.00000E+00
 1.00000E+01 0.00000E+00
 1.10000E+01 9.24839E+00
 1.20000E+01 3.05297E+01
 1.30000E+01 4.80084E+01
 1.40000E+01 5.64454E+01
 1.50000E+01 5.89964E+01
 1.60000E+01 5.72100E+01
 1.70000E+01 5.05199E+01
 1.80000E+01 4.08117E+01
 1.90000E+01 3.09604E+01
 2.00000E+01 2.32745E+01
 2.10000E+01 1.78060E+01
 2.20000E+01 1.44927E+01
 2.30000E+01 1.23746E+01
 2.40000E+01 1.10737E+01
 2.50000E+01 1.02307E+01
 2.60000E+01 9.57619E+00
 2.70000E+01 9.07421E+00
 2.80000E+01 8.74498E+00
 2.90000E+01 8.35018E+00
 3.00000E+01 8.06997E+00
