# n + 208Pb: Gamma-ray intensity - 207Pb: Level  1 --> Level  0 - gamma energy    0.569698
# E-initial  =   0.569698 E-final=   0.000000
# E-threshold= 7.97607E+00
# # energies =    67
#    E           xs
 1.00000E-11 0.00000E+00
 2.53000E-08 0.00000E+00
 2.00000E-07 0.00000E+00
 1.00000E-06 0.00000E+00
 1.00000E-03 0.00000E+00
 2.00000E-03 0.00000E+00
 5.00000E-03 0.00000E+00
 1.00000E-02 0.00000E+00
 2.00000E-02 0.00000E+00
 5.00000E-02 0.00000E+00
 1.00000E-01 0.00000E+00
 2.00000E-01 0.00000E+00
 3.00000E-01 0.00000E+00
 4.00000E-01 0.00000E+00
 5.00000E-01 0.00000E+00
 7.50000E-01 0.00000E+00
 1.00000E+00 0.00000E+00
 1.20000E+00 0.00000E+00
 1.40000E+00 0.00000E+00
 1.60000E+00 0.00000E+00
 1.80000E+00 0.00000E+00
 2.00000E+00 0.00000E+00
 2.20000E+00 0.00000E+00
 2.40000E+00 0.00000E+00
 2.60000E+00 0.00000E+00
 2.80000E+00 0.00000E+00
 3.00000E+00 0.00000E+00
 3.20000E+00 0.00000E+00
 3.40000E+00 0.00000E+00
 3.60000E+00 0.00000E+00
 3.80000E+00 0.00000E+00
 4.00000E+00 0.00000E+00
 4.20000E+00 0.00000E+00
 4.40000E+00 0.00000E+00
 4.60000E+00 0.00000E+00
 4.80000E+00 0.00000E+00
 5.00000E+00 0.00000E+00
 5.50000E+00 0.00000E+00
 6.00000E+00 0.00000E+00
 6.50000E+00 0.00000E+00
 7.00000E+00 0.00000E+00
 7.50000E+00 0.00000E+00
 8.00000E+00 4.44502E-01
 8.50000E+00 1.04626E+02
 9.00000E+00 3.41384E+02
 9.50000E+00 5.44056E+02
 1.00000E+01 6.62684E+02
 1.10000E+01 7.72444E+02
 1.20000E+01 7.93554E+02
 1.30000E+01 8.03494E+02
 1.40000E+01 8.04596E+02
 1.50000E+01 7.85314E+02
 1.60000E+01 7.25206E+02
 1.70000E+01 6.14632E+02
 1.80000E+01 4.84294E+02
 1.90000E+01 3.66702E+02
 2.00000E+01 2.83184E+02
 2.10000E+01 2.22322E+02
 2.20000E+01 1.86637E+02
 2.30000E+01 1.61823E+02
 2.40000E+01 1.45922E+02
 2.50000E+01 1.34319E+02
 2.60000E+01 1.25939E+02
 2.70000E+01 1.18269E+02
 2.80000E+01 1.12810E+02
 2.90000E+01 1.08157E+02
 3.00000E+01 1.04217E+02
