# n + 208Pb: Gamma-ray intensity - 207Pb: Level  1 --> Level  0 - gamma energy    0.569698
# E-initial  =   0.569698 E-final=   0.000000
# E-threshold= 7.97607E+00
# # energies =    67
#    E           xs
 1.00000E-11 0.00000E+00
 2.53000E-08 0.00000E+00
 2.00000E-07 0.00000E+00
 1.00000E-06 0.00000E+00
 1.00000E-03 0.00000E+00
 2.00000E-03 0.00000E+00
 5.00000E-03 0.00000E+00
 1.00000E-02 0.00000E+00
 2.00000E-02 0.00000E+00
 5.00000E-02 0.00000E+00
 1.00000E-01 0.00000E+00
 2.00000E-01 0.00000E+00
 3.00000E-01 0.00000E+00
 4.00000E-01 0.00000E+00
 5.00000E-01 0.00000E+00
 7.50000E-01 0.00000E+00
 1.00000E+00 0.00000E+00
 1.20000E+00 0.00000E+00
 1.40000E+00 0.00000E+00
 1.60000E+00 0.00000E+00
 1.80000E+00 0.00000E+00
 2.00000E+00 0.00000E+00
 2.20000E+00 0.00000E+00
 2.40000E+00 0.00000E+00
 2.60000E+00 0.00000E+00
 2.80000E+00 0.00000E+00
 3.00000E+00 0.00000E+00
 3.20000E+00 0.00000E+00
 3.40000E+00 0.00000E+00
 3.60000E+00 0.00000E+00
 3.80000E+00 0.00000E+00
 4.00000E+00 0.00000E+00
 4.20000E+00 0.00000E+00
 4.40000E+00 0.00000E+00
 4.60000E+00 0.00000E+00
 4.80000E+00 0.00000E+00
 5.00000E+00 0.00000E+00
 5.50000E+00 0.00000E+00
 6.00000E+00 0.00000E+00
 6.50000E+00 0.00000E+00
 7.00000E+00 0.00000E+00
 7.50000E+00 0.00000E+00
 8.00000E+00 4.44497E-01
 8.50000E+00 1.04625E+02
 9.00000E+00 3.41381E+02
 9.50000E+00 5.44052E+02
 1.00000E+01 6.62681E+02
 1.10000E+01 7.72442E+02
 1.20000E+01 7.93552E+02
 1.30000E+01 8.03493E+02
 1.40000E+01 8.04594E+02
 1.50000E+01 7.85313E+02
 1.60000E+01 7.25205E+02
 1.70000E+01 6.14550E+02
 1.80000E+01 4.83621E+02
 1.90000E+01 3.64247E+02
 2.00000E+01 2.79881E+02
 2.10000E+01 2.18709E+02
 2.20000E+01 1.83404E+02
 2.30000E+01 1.59064E+02
 2.40000E+01 1.43737E+02
 2.50000E+01 1.32677E+02
 2.60000E+01 1.24311E+02
 2.70000E+01 1.16649E+02
 2.80000E+01 1.11499E+02
 2.90000E+01 1.06673E+02
 3.00000E+01 1.02907E+02
