# n + 208Pb: Gamma-ray intensity - 208Pb: Level 29 --> Level  7 - gamma energy    0.747565
# E-initial  =   4.708727 E-final=   3.961162
# E-threshold= 4.73156E+00
# # energies =    67
#    E           xs
 1.00000E-11 0.00000E+00
 2.53000E-08 0.00000E+00
 2.00000E-07 0.00000E+00
 1.00000E-06 0.00000E+00
 1.00000E-03 0.00000E+00
 2.00000E-03 0.00000E+00
 5.00000E-03 0.00000E+00
 1.00000E-02 0.00000E+00
 2.00000E-02 0.00000E+00
 5.00000E-02 0.00000E+00
 1.00000E-01 0.00000E+00
 2.00000E-01 0.00000E+00
 3.00000E-01 0.00000E+00
 4.00000E-01 0.00000E+00
 5.00000E-01 0.00000E+00
 7.50000E-01 0.00000E+00
 1.00000E+00 0.00000E+00
 1.20000E+00 0.00000E+00
 1.40000E+00 0.00000E+00
 1.60000E+00 0.00000E+00
 1.80000E+00 0.00000E+00
 2.00000E+00 0.00000E+00
 2.20000E+00 0.00000E+00
 2.40000E+00 0.00000E+00
 2.60000E+00 0.00000E+00
 2.80000E+00 0.00000E+00
 3.00000E+00 0.00000E+00
 3.20000E+00 0.00000E+00
 3.40000E+00 0.00000E+00
 3.60000E+00 0.00000E+00
 3.80000E+00 0.00000E+00
 4.00000E+00 0.00000E+00
 4.20000E+00 0.00000E+00
 4.40000E+00 0.00000E+00
 4.60000E+00 0.00000E+00
 4.80000E+00 2.49198E+00
 5.00000E+00 5.41105E+00
 5.50000E+00 8.20522E+00
 6.00000E+00 7.74520E+00
 6.50000E+00 7.14978E+00
 7.00000E+00 6.72865E+00
 7.50000E+00 6.40035E+00
 8.00000E+00 6.04407E+00
 8.50000E+00 5.41587E+00
 9.00000E+00 4.51151E+00
 9.50000E+00 3.56290E+00
 1.00000E+01 2.70676E+00
 1.10000E+01 1.51249E+00
 1.20000E+01 9.45538E-01
 1.30000E+01 7.00466E-01
 1.40000E+01 5.91553E-01
 1.50000E+01 5.35592E-01
 1.60000E+01 4.98825E-01
 1.70000E+01 4.76205E-01
 1.80000E+01 4.52621E-01
 1.90000E+01 4.32865E-01
 2.00000E+01 4.16754E-01
 2.10000E+01 4.01453E-01
 2.20000E+01 3.85526E-01
 2.30000E+01 3.70887E-01
 2.40000E+01 3.55654E-01
 2.50000E+01 3.40860E-01
 2.60000E+01 3.27209E-01
 2.70000E+01 3.17088E-01
 2.80000E+01 3.04066E-01
 2.90000E+01 2.94562E-01
 3.00000E+01 2.85230E-01
