# n + 242Pu   : (n,gf)            Fission
# Q-value    = 5.03365E+00
# E-threshold= 0.00000E+00
# # energies =    78
#    E         xs
 1.00000E-11 0.00000E+00
 2.53000E-08 0.00000E+00
 2.00000E-07 0.00000E+00
 1.00000E-06 1.98172E+04
 1.00000E-05 4.52500E+03
 1.00000E-04 8.41799E+02
 1.00000E-03 1.50355E+02
 2.00000E-03 1.01125E+02
 4.00000E-03 6.66392E+01
 7.00000E-03 7.14073E+01
 1.00000E-02 6.42235E+01
 2.00000E-02 7.31676E+01
 4.00000E-02 6.70707E+01
 7.00000E-02 4.43052E+01
 1.00000E-01 4.96580E+01
 2.00000E-01 5.11634E+01
 3.00000E-01 4.05273E+01
 4.00000E-01 7.21293E+01
 5.00000E-01 1.19997E+02
 6.00000E-01 2.23625E+02
 7.00000E-01 3.97855E+02
 8.00000E-01 6.56612E+02
 9.00000E-01 9.34627E+02
 1.00000E+00 1.17826E+03
 1.20000E+00 1.34727E+03
 1.40000E+00 1.39429E+03
 1.60000E+00 1.49710E+03
 1.80000E+00 1.57196E+03
 2.00000E+00 1.56079E+03
 2.20000E+00 1.51264E+03
 2.40000E+00 1.45513E+03
 2.60000E+00 1.40448E+03
 2.80000E+00 1.35193E+03
 3.00000E+00 1.31457E+03
 3.20000E+00 1.28279E+03
 3.40000E+00 1.25377E+03
 3.60000E+00 1.22716E+03
 3.80000E+00 1.20445E+03
 4.00000E+00 1.18175E+03
 4.20000E+00 1.16124E+03
 4.40000E+00 1.13957E+03
 4.60000E+00 1.11949E+03
 4.80000E+00 1.09994E+03
 5.00000E+00 1.08106E+03
 5.20000E+00 1.06053E+03
 5.40000E+00 1.04063E+03
 5.60000E+00 1.02355E+03
 5.80000E+00 1.00949E+03
 6.00000E+00 9.99120E+02
 6.20000E+00 9.92816E+02
 6.40000E+00 9.87457E+02
 6.60000E+00 9.86694E+02
 6.80000E+00 9.73558E+02
 7.00000E+00 9.17015E+02
 7.20000E+00 7.95207E+02
 7.40000E+00 6.45639E+02
 7.60000E+00 5.20502E+02
 7.80000E+00 4.24228E+02
 8.00000E+00 3.57088E+02
 8.50000E+00 2.54374E+02
 9.00000E+00 2.01362E+02
 9.50000E+00 1.71699E+02
 1.00000E+01 1.53623E+02
 1.05000E+01 1.42276E+02
 1.10000E+01 1.34148E+02
 1.15000E+01 1.27886E+02
 1.20000E+01 1.22616E+02
 1.25000E+01 1.17981E+02
 1.30000E+01 1.13831E+02
 1.35000E+01 1.09993E+02
 1.40000E+01 1.06466E+02
 1.45000E+01 1.03156E+02
 1.50000E+01 1.00029E+02
 1.60000E+01 9.37553E+01
 1.70000E+01 8.84433E+01
 1.80000E+01 8.35860E+01
 1.90000E+01 7.91203E+01
 2.00000E+01 7.49263E+01
