# n + 242Pu   : (n,n'f)           Fission
# Q-value    = 0.00000E+00
# E-threshold= 4.47256E-02
# # energies =    78
#    E         xs
 1.00000E-11 0.00000E+00
 2.53000E-08 0.00000E+00
 2.00000E-07 0.00000E+00
 1.00000E-06 0.00000E+00
 1.00000E-05 0.00000E+00
 1.00000E-04 0.00000E+00
 1.00000E-03 0.00000E+00
 2.00000E-03 0.00000E+00
 4.00000E-03 0.00000E+00
 7.00000E-03 0.00000E+00
 1.00000E-02 0.00000E+00
 2.00000E-02 0.00000E+00
 4.00000E-02 0.00000E+00
 7.00000E-02 0.00000E+00
 1.00000E-01 0.00000E+00
 2.00000E-01 0.00000E+00
 3.00000E-01 0.00000E+00
 4.00000E-01 0.00000E+00
 5.00000E-01 0.00000E+00
 6.00000E-01 0.00000E+00
 7.00000E-01 0.00000E+00
 8.00000E-01 0.00000E+00
 9.00000E-01 0.00000E+00
 1.00000E+00 0.00000E+00
 1.20000E+00 0.00000E+00
 1.40000E+00 0.00000E+00
 1.60000E+00 0.00000E+00
 1.80000E+00 0.00000E+00
 2.00000E+00 0.00000E+00
 2.20000E+00 0.00000E+00
 2.40000E+00 0.00000E+00
 2.60000E+00 0.00000E+00
 2.80000E+00 0.00000E+00
 3.00000E+00 0.00000E+00
 3.20000E+00 0.00000E+00
 3.40000E+00 0.00000E+00
 3.60000E+00 0.00000E+00
 3.80000E+00 0.00000E+00
 4.00000E+00 2.46103E-02
 4.20000E+00 2.23721E+00
 4.40000E+00 1.57437E+00
 4.60000E+00 2.15391E+00
 4.80000E+00 1.76288E+01
 5.00000E+00 5.36119E+01
 5.20000E+00 1.28149E+02
 5.40000E+00 2.05953E+02
 5.60000E+00 2.60186E+02
 5.80000E+00 3.77455E+02
 6.00000E+00 5.13068E+02
 6.20000E+00 6.88207E+02
 6.40000E+00 8.78248E+02
 6.60000E+00 1.01646E+03
 6.80000E+00 1.08958E+03
 7.00000E+00 1.15173E+03
 7.20000E+00 1.24207E+03
 7.40000E+00 1.34114E+03
 7.60000E+00 1.43065E+03
 7.80000E+00 1.48948E+03
 8.00000E+00 1.52814E+03
 8.50000E+00 1.57914E+03
 9.00000E+00 1.59303E+03
 9.50000E+00 1.58715E+03
 1.00000E+01 1.57724E+03
 1.05000E+01 1.55845E+03
 1.10000E+01 1.53122E+03
 1.15000E+01 1.48811E+03
 1.20000E+01 1.41846E+03
 1.25000E+01 1.31736E+03
 1.30000E+01 1.20520E+03
 1.35000E+01 1.12166E+03
 1.40000E+01 1.04073E+03
 1.45000E+01 9.78205E+02
 1.50000E+01 9.13409E+02
 1.60000E+01 7.85982E+02
 1.70000E+01 6.39004E+02
 1.80000E+01 5.19403E+02
 1.90000E+01 4.32828E+02
 2.00000E+01 3.79648E+02
