# n + 242Pu   : (n,n'f)           Fission
# Q-value    = 0.00000E+00
# E-threshold= 4.47256E-02
# # energies =    78
#    E         xs
 1.00000E-11 0.00000E+00
 2.53000E-08 0.00000E+00
 2.00000E-07 0.00000E+00
 1.00000E-06 0.00000E+00
 1.00000E-05 0.00000E+00
 1.00000E-04 0.00000E+00
 1.00000E-03 0.00000E+00
 2.00000E-03 0.00000E+00
 4.00000E-03 0.00000E+00
 7.00000E-03 0.00000E+00
 1.00000E-02 0.00000E+00
 2.00000E-02 0.00000E+00
 4.00000E-02 0.00000E+00
 7.00000E-02 0.00000E+00
 1.00000E-01 0.00000E+00
 2.00000E-01 0.00000E+00
 3.00000E-01 0.00000E+00
 4.00000E-01 0.00000E+00
 5.00000E-01 0.00000E+00
 6.00000E-01 0.00000E+00
 7.00000E-01 0.00000E+00
 8.00000E-01 0.00000E+00
 9.00000E-01 0.00000E+00
 1.00000E+00 0.00000E+00
 1.20000E+00 0.00000E+00
 1.40000E+00 0.00000E+00
 1.60000E+00 0.00000E+00
 1.80000E+00 0.00000E+00
 2.00000E+00 0.00000E+00
 2.20000E+00 0.00000E+00
 2.40000E+00 0.00000E+00
 2.60000E+00 0.00000E+00
 2.80000E+00 0.00000E+00
 3.00000E+00 0.00000E+00
 3.20000E+00 0.00000E+00
 3.40000E+00 0.00000E+00
 3.60000E+00 0.00000E+00
 3.80000E+00 0.00000E+00
 4.00000E+00 2.44957E-02
 4.20000E+00 2.38539E+00
 4.40000E+00 1.48609E+00
 4.60000E+00 2.11387E+00
 4.80000E+00 1.78264E+01
 5.00000E+00 5.29438E+01
 5.20000E+00 1.25291E+02
 5.40000E+00 2.03675E+02
 5.60000E+00 2.59281E+02
 5.80000E+00 3.75745E+02
 6.00000E+00 5.10437E+02
 6.20000E+00 6.85198E+02
 6.40000E+00 8.74601E+02
 6.60000E+00 1.01613E+03
 6.80000E+00 1.09666E+03
 7.00000E+00 1.16651E+03
 7.20000E+00 1.26342E+03
 7.40000E+00 1.36783E+03
 7.60000E+00 1.46091E+03
 7.80000E+00 1.52160E+03
 8.00000E+00 1.56133E+03
 8.50000E+00 1.61206E+03
 9.00000E+00 1.62423E+03
 9.50000E+00 1.61664E+03
 1.00000E+01 1.60548E+03
 1.05000E+01 1.58555E+03
 1.10000E+01 1.55757E+03
 1.15000E+01 1.51436E+03
 1.20000E+01 1.44482E+03
 1.25000E+01 1.34330E+03
 1.30000E+01 1.22918E+03
 1.35000E+01 1.14348E+03
 1.40000E+01 1.06000E+03
 1.45000E+01 9.95668E+02
 1.50000E+01 9.29024E+02
 1.60000E+01 7.98942E+02
 1.70000E+01 6.49576E+02
 1.80000E+01 5.27151E+02
 1.90000E+01 4.37986E+02
 2.00000E+01 3.83102E+02
