# n +  28Si   : (n,g)             Total
# Q-value    = 8.39469E+00
# E-threshold= 0.00000E+00
# # energies = 50
#    E         xs       gamma xs  xs/res.prod.xs
 1.000E-01 1.98094E+00 3.45696E+00 1.00000E+00
 2.000E-01 1.45621E+00 2.66152E+00 1.00000E+00
 4.000E-01 1.03019E+00 1.95489E+00 1.00000E+00
 6.000E-01 8.66781E-01 1.68332E+00 1.00000E+00
 8.000E-01 7.99475E-01 1.58440E+00 1.00000E+00
 1.000E+00 7.79630E-01 1.57575E+00 1.00000E+00
 1.200E+00 7.84998E-01 1.61312E+00 1.00000E+00
 1.400E+00 8.08031E-01 1.68482E+00 1.00000E+00
 1.600E+00 8.44898E-01 1.78445E+00 1.00000E+00
 1.800E+00 8.93736E-01 1.90902E+00 1.00000E+00
 2.000E+00 5.23457E-01 1.08227E+00 1.00000E+00
 2.200E+00 4.56468E-01 9.14495E-01 1.00000E+00
 2.400E+00 4.36981E-01 8.66077E-01 1.00000E+00
 2.600E+00 4.37002E-01 8.65115E-01 1.00000E+00
 2.800E+00 4.47641E-01 8.88628E-01 1.00000E+00
 3.000E+00 4.65921E-01 9.29366E-01 1.00000E+00
 3.200E+00 4.91026E-01 9.85646E-01 1.00000E+00
 3.400E+00 5.21330E-01 1.05397E+00 1.00000E+00
 3.600E+00 5.56631E-01 1.13353E+00 1.00000E+00
 3.800E+00 5.97226E-01 1.22586E+00 1.00000E+00
 4.000E+00 6.41670E-01 1.32797E+00 1.00000E+00
 4.200E+00 6.91608E-01 1.44505E+00 1.00000E+00
 4.400E+00 7.44773E-01 1.57222E+00 1.00000E+00
 4.600E+00 8.02553E-01 1.71401E+00 1.00000E+00
 4.800E+00 8.46159E-01 1.81109E+00 1.00000E+00
 5.000E+00 8.67883E-01 1.84317E+00 1.00000E+00
 5.200E+00 8.93140E-01 1.91528E+00 1.00000E+00
 5.400E+00 9.13350E-01 1.98561E+00 1.00000E+00
 5.600E+00 9.39021E-01 2.06956E+00 1.00000E+00
 5.800E+00 9.62675E-01 2.15176E+00 1.00000E+00
 6.000E+00 9.79226E-01 2.21956E+00 1.00000E+00
 6.200E+00 9.89344E-01 2.27398E+00 1.00000E+00
 6.400E+00 9.91429E-01 2.31129E+00 1.00000E+00
 6.600E+00 9.65700E-01 2.28079E+00 1.00000E+00
 6.800E+00 9.29968E-01 2.22377E+00 1.00000E+00
 7.000E+00 8.94455E-01 2.17272E+00 1.00000E+00
 7.200E+00 8.39904E-01 2.06928E+00 1.00000E+00
 7.400E+00 7.61611E-01 1.90089E+00 1.00000E+00
 7.600E+00 7.05243E-01 1.78564E+00 1.00000E+00
 7.800E+00 6.49926E-01 1.67302E+00 1.00000E+00
 8.000E+00 6.10951E-01 1.59831E+00 1.00000E+00
 8.500E+00 5.39388E-01 1.46349E+00 1.00000E+00
 9.000E+00 8.58600E-01 2.25854E+00 1.00000E+00
 9.500E+00 8.27394E-01 2.20387E+00 1.00000E+00
 1.000E+01 8.10817E-01 2.17407E+00 1.00000E+00
 1.200E+01 8.21657E-01 2.20644E+00 1.00000E+00
 1.400E+01 8.34237E-01 2.20517E+00 1.00000E+00
 1.600E+01 8.02056E-01 2.14309E+00 1.00000E+00
 1.800E+01 7.54596E-01 2.10890E+00 1.00000E+00
 2.000E+01 6.92326E-01 2.02743E+00 1.00000E+00
