# n +  28Si   : (n,g)             Total
# Q-value    = 8.47355E+00
# E-threshold= 0.00000E+00
# # energies = 50
#    E         xs       gamma xs  xs/res.prod.xs
 1.000E-01 5.71619E-01 1.07562E+00 1.00000E+00
 2.000E-01 1.70119E+00 3.20115E+00 1.00000E+00
 4.000E-01 1.22111E+00 2.39121E+00 1.00000E+00
 6.000E-01 1.02136E+00 2.04105E+00 1.00000E+00
 8.000E-01 9.29197E-01 1.88656E+00 1.00000E+00
 1.000E+00 8.91430E-01 1.83654E+00 1.00000E+00
 1.200E+00 8.82671E-01 1.84008E+00 1.00000E+00
 1.400E+00 8.94423E-01 1.88311E+00 1.00000E+00
 1.600E+00 9.22083E-01 1.95744E+00 1.00000E+00
 1.800E+00 9.62019E-01 2.05632E+00 1.00000E+00
 2.000E+00 5.55640E-01 1.14463E+00 1.00000E+00
 2.200E+00 4.80215E-01 9.54953E-01 1.00000E+00
 2.400E+00 4.56060E-01 8.93740E-01 1.00000E+00
 2.600E+00 4.52518E-01 8.82311E-01 1.00000E+00
 2.800E+00 4.60380E-01 8.96957E-01 1.00000E+00
 3.000E+00 4.76212E-01 9.29296E-01 1.00000E+00
 3.200E+00 4.97886E-01 9.74227E-01 1.00000E+00
 3.400E+00 5.25350E-01 1.03289E+00 1.00000E+00
 3.600E+00 5.57572E-01 1.10160E+00 1.00000E+00
 3.800E+00 5.93885E-01 1.17992E+00 1.00000E+00
 4.000E+00 6.34877E-01 1.27009E+00 1.00000E+00
 4.200E+00 6.78984E-01 1.36897E+00 1.00000E+00
 4.400E+00 7.27251E-01 1.48047E+00 1.00000E+00
 4.600E+00 7.77875E-01 1.60064E+00 1.00000E+00
 4.800E+00 8.15635E-01 1.68265E+00 1.00000E+00
 5.000E+00 8.35758E-01 1.71467E+00 1.00000E+00
 5.200E+00 8.55349E-01 1.77360E+00 1.00000E+00
 5.400E+00 8.70826E-01 1.83168E+00 1.00000E+00
 5.600E+00 8.89319E-01 1.89645E+00 1.00000E+00
 5.800E+00 9.06367E-01 1.96034E+00 1.00000E+00
 6.000E+00 9.18726E-01 2.01549E+00 1.00000E+00
 6.200E+00 9.23707E-01 2.05467E+00 1.00000E+00
 6.400E+00 9.23104E-01 2.08288E+00 1.00000E+00
 6.600E+00 8.96312E-01 2.04841E+00 1.00000E+00
 6.800E+00 8.66592E-01 2.00677E+00 1.00000E+00
 7.000E+00 8.32362E-01 1.95778E+00 1.00000E+00
 7.200E+00 7.81050E-01 1.86315E+00 1.00000E+00
 7.400E+00 7.05483E-01 1.70426E+00 1.00000E+00
 7.600E+00 6.50151E-01 1.59329E+00 1.00000E+00
 7.800E+00 5.89616E-01 1.46813E+00 1.00000E+00
 8.000E+00 5.48048E-01 1.38648E+00 1.00000E+00
 8.500E+00 4.73092E-01 1.24145E+00 1.00000E+00
 9.000E+00 4.09134E-01 1.10464E+00 1.00000E+00
 9.500E+00 4.53324E-01 1.17572E+00 1.00000E+00
 1.000E+01 4.30072E-01 1.11868E+00 1.00000E+00
 1.200E+01 4.52835E-01 1.12816E+00 1.00000E+00
 1.400E+01 5.43142E-01 1.33515E+00 1.00000E+00
 1.600E+01 6.08200E-01 1.57824E+00 1.00000E+00
 1.800E+01 6.11516E-01 1.70688E+00 1.00000E+00
 2.000E+01 5.71365E-01 1.69025E+00 1.00000E+00
