# n + Si28   : (n,g)             Total
# Q-value    = 8.47361E+00
# E-threshold= 0.00000E+00
# # energies =    50
#     E          xs       gamma xs  xs/res.prod.xs
 1.00000E-01 9.57409E-01 1.68824E+00 1.00000E+00
 2.00000E-01 6.28413E-01 1.17509E+00 1.00000E+00
 4.00000E-01 4.40556E-01 8.70202E-01 1.00000E+00
 6.00000E-01 3.71293E-01 7.57122E-01 1.00000E+00
 8.00000E-01 3.39596E-01 7.09005E-01 1.00000E+00
 1.00000E+00 3.26613E-01 6.97217E-01 1.00000E+00
 1.20000E+00 3.22750E-01 7.01558E-01 1.00000E+00
 1.40000E+00 3.25589E-01 7.19590E-01 1.00000E+00
 1.60000E+00 3.33347E-01 7.48394E-01 1.00000E+00
 1.80000E+00 3.45171E-01 7.86559E-01 1.00000E+00
 2.00000E+00 1.82089E-01 4.05315E-01 1.00000E+00
 2.20000E+00 1.44093E-01 3.16424E-01 1.00000E+00
 2.40000E+00 1.30847E-01 2.87161E-01 1.00000E+00
 2.60000E+00 1.26538E-01 2.79783E-01 1.00000E+00
 2.80000E+00 1.26785E-01 2.83025E-01 1.00000E+00
 3.00000E+00 1.29871E-01 2.93050E-01 1.00000E+00
 3.20000E+00 1.34353E-01 3.06405E-01 1.00000E+00
 3.40000E+00 1.40534E-01 3.25179E-01 1.00000E+00
 3.60000E+00 1.47699E-01 3.45354E-01 1.00000E+00
 3.80000E+00 1.55596E-01 3.67403E-01 1.00000E+00
 4.00000E+00 1.64709E-01 3.92749E-01 1.00000E+00
 4.20000E+00 1.74181E-01 4.19351E-01 1.00000E+00
 4.40000E+00 1.85455E-01 4.50444E-01 1.00000E+00
 4.60000E+00 1.97143E-01 4.83242E-01 1.00000E+00
 4.80000E+00 2.04380E-01 4.99236E-01 1.00000E+00
 5.00000E+00 1.99714E-01 4.79535E-01 1.00000E+00
 5.20000E+00 2.01609E-01 4.83454E-01 1.00000E+00
 5.40000E+00 2.00300E-01 4.85065E-01 1.00000E+00
 5.60000E+00 2.00603E-01 4.90284E-01 1.00000E+00
 5.80000E+00 2.03244E-01 5.00012E-01 1.00000E+00
 6.00000E+00 2.06597E-01 5.11680E-01 1.00000E+00
 6.20000E+00 2.08205E-01 5.18734E-01 1.00000E+00
 6.40000E+00 2.09554E-01 5.24669E-01 1.00000E+00
 6.60000E+00 2.06641E-01 5.19486E-01 1.00000E+00
 6.80000E+00 2.01039E-01 5.08263E-01 1.00000E+00
 7.00000E+00 1.94265E-01 4.94490E-01 1.00000E+00
 7.20000E+00 1.85095E-01 4.73529E-01 1.00000E+00
 7.40000E+00 1.74049E-01 4.45954E-01 1.00000E+00
 7.60000E+00 1.67703E-01 4.31575E-01 1.00000E+00
 7.80000E+00 1.57139E-01 4.07514E-01 1.00000E+00
 8.00000E+00 1.49024E-01 3.90338E-01 1.00000E+00
 8.50000E+00 1.37284E-01 3.67146E-01 1.00000E+00
 9.00000E+00 2.90262E-01 6.90585E-01 1.00000E+00
 9.50000E+00 3.03993E-01 7.17474E-01 1.00000E+00
 1.00000E+01 3.16420E-01 7.46518E-01 1.00000E+00
 1.20000E+01 4.58782E-01 1.06001E+00 1.00000E+00
 1.40000E+01 6.27668E-01 1.52163E+00 1.00000E+00
 1.60000E+01 7.13829E-01 1.87943E+00 1.00000E+00
 1.80000E+01 6.87245E-01 1.94672E+00 1.00000E+00
 2.00000E+01 6.10085E-01 1.82795E+00 1.00000E+00
