# n + 209Bi: alpha    DDX spectrum
# E-incident =  63.000
# 
# # energies =211
# E-out    Total       Direct    Pre-equil.  Mult. preeq  Compound
  0.700 0.00000E+00 0.00000E+00 0.00000E+00 0.00000E+00 0.00000E+00
  0.800 0.00000E+00 0.00000E+00 0.00000E+00 0.00000E+00 0.00000E+00
  0.900 0.00000E+00 0.00000E+00 0.00000E+00 0.00000E+00 0.00000E+00
  1.000 0.00000E+00 0.00000E+00 0.00000E+00 0.00000E+00 0.00000E+00
  1.100 0.00000E+00 0.00000E+00 0.00000E+00 0.00000E+00 0.00000E+00
  1.200 0.00000E+00 0.00000E+00 0.00000E+00 0.00000E+00 0.00000E+00
  1.300 0.00000E+00 0.00000E+00 0.00000E+00 0.00000E+00 0.00000E+00
  1.400 0.00000E+00 0.00000E+00 0.00000E+00 0.00000E+00 0.00000E+00
  1.500 0.00000E+00 0.00000E+00 0.00000E+00 0.00000E+00 0.00000E+00
  1.600 0.00000E+00 0.00000E+00 0.00000E+00 0.00000E+00 0.00000E+00
  1.700 0.00000E+00 0.00000E+00 0.00000E+00 0.00000E+00 0.00000E+00
  1.800 0.00000E+00 0.00000E+00 0.00000E+00 0.00000E+00 0.00000E+00
  1.900 0.00000E+00 0.00000E+00 0.00000E+00 0.00000E+00 0.00000E+00
  2.000 0.00000E+00 0.00000E+00 0.00000E+00 0.00000E+00 0.00000E+00
  2.200 0.00000E+00 0.00000E+00 0.00000E+00 0.00000E+00 0.00000E+00
  2.400 0.00000E+00 0.00000E+00 0.00000E+00 0.00000E+00 0.00000E+00
  2.600 1.40130E-45 0.00000E+00 1.40130E-45 0.00000E+00 0.00000E+00
  2.800 1.01034E-42 0.00000E+00 1.01034E-42 0.00000E+00 0.00000E+00
  3.000 3.96004E-40 0.00000E+00 3.96004E-40 0.00000E+00 0.00000E+00
  3.200 4.41123E-37 0.00000E+00 4.41123E-37 0.00000E+00 0.00000E+00
  3.400 5.65334E-35 0.00000E+00 5.65334E-35 0.00000E+00 0.00000E+00
  3.600 4.60142E-33 0.00000E+00 4.60142E-33 0.00000E+00 0.00000E+00
  3.800 2.53966E-31 0.00000E+00 2.53966E-31 0.00000E+00 0.00000E+00
  4.000 9.98610E-30 0.00000E+00 9.98610E-30 0.00000E+00 0.00000E+00
  4.500 2.82508E-26 0.00000E+00 2.82508E-26 0.00000E+00 0.00000E+00
  5.000 1.97350E-23 0.00000E+00 1.97350E-23 0.00000E+00 0.00000E+00
  5.500 4.72350E-21 0.00000E+00 4.72350E-21 0.00000E+00 0.00000E+00
  6.000 4.87944E-19 0.00000E+00 4.87944E-19 0.00000E+00 0.00000E+00
  6.500 2.57698E-17 0.00000E+00 2.57698E-17 0.00000E+00 0.00000E+00
  7.000 7.90992E-16 0.00000E+00 7.90992E-16 0.00000E+00 0.00000E+00
  7.500 1.55817E-14 0.00000E+00 1.55817E-14 0.00000E+00 0.00000E+00
  8.000 9.91775E-11 0.00000E+00 2.13181E-13 0.00000E+00 9.89644E-11
  8.500 3.09025E-09 0.00000E+00 2.15818E-12 0.00000E+00 3.08809E-09
  9.000 6.80211E-06 0.00000E+00 1.70121E-11 0.00000E+00 6.80209E-06
  9.500 2.94187E-05 0.00000E+00 1.08806E-10 0.00000E+00 2.94185E-05
 10.000 1.90039E-04 0.00000E+00 5.83369E-10 0.00000E+00 1.90039E-04
 10.500 6.78919E-04 0.00000E+00 2.69103E-09 0.00000E+00 6.78916E-04
 11.000 1.89585E-03 0.00000E+00 1.09059E-08 0.00000E+00 1.89584E-03
 11.500 3.35774E-03 0.00000E+00 3.94872E-08 0.00000E+00 3.35770E-03
 12.000 4.77937E-03 0.00000E+00 1.29568E-07 0.00000E+00 4.77924E-03
 12.500 6.07777E-03 0.00000E+00 3.89913E-07 0.00000E+00 6.07738E-03
 13.000 6.92116E-03 0.00000E+00 1.08765E-06 0.00000E+00 6.92007E-03
 13.500 8.34136E-03 0.00000E+00 2.83847E-06 0.00000E+00 8.33852E-03
 14.000 1.00772E-02 0.00000E+00 6.98828E-06 0.00000E+00 1.00702E-02
 14.500 1.22051E-02 0.00000E+00 1.63492E-05 0.00000E+00 1.21887E-02
 15.000 1.53140E-02 0.00000E+00 3.65763E-05 0.00000E+00 1.52774E-02
 15.500 2.02410E-02 0.00000E+00 7.86661E-05 0.00000E+00 2.01623E-02
 16.000 2.62725E-02 0.00000E+00 1.63339E-04 0.00000E+00 2.61092E-02
 16.500 3.25043E-02 0.00000E+00 3.28420E-04 0.00000E+00 3.21759E-02
 17.000 4.01783E-02 0.00000E+00 6.40686E-04 0.00000E+00 3.95376E-02
 17.500 5.20392E-02 0.00000E+00 1.21377E-03 0.00000E+00 5.08255E-02
 18.000 6.76369E-02 0.00000E+00 2.23192E-03 0.00000E+00 6.54050E-02
 18.500 8.65873E-02 0.00000E+00 3.97527E-03 0.00000E+00 8.26120E-02
 19.000 1.14757E-01 0.00000E+00 6.83156E-03 0.00000E+00 1.07925E-01
 19.500 1.54575E-01 0.00000E+00 2.03540E-02 0.00000E+00 1.34221E-01
 20.000 1.86193E-01 0.00000E+00 3.30383E-02 0.00000E+00 1.53155E-01
 21.000 2.01039E-01 0.00000E+00 5.59643E-02 0.00000E+00 1.45075E-01
 22.000 1.73077E-01 0.00000E+00 7.57579E-02 0.00000E+00 9.73193E-02
 23.000 1.48849E-01 0.00000E+00 9.25789E-02 0.00000E+00 5.62700E-02
 24.000 1.36738E-01 0.00000E+00 1.06598E-01 0.00000E+00 3.01402E-02
 25.000 1.34454E-01 0.00000E+00 1.17992E-01 0.00000E+00 1.64619E-02
 26.000 1.35163E-01 0.00000E+00 1.26944E-01 0.00000E+00 8.21873E-03
 27.000 1.38008E-01 0.00000E+00 1.33643E-01 0.00000E+00 4.36519E-03
 28.000 1.40386E-01 0.00000E+00 1.38274E-01 0.00000E+00 2.11218E-03
 29.000 1.42094E-01 0.00000E+00 1.41026E-01 0.00000E+00 1.06743E-03
 30.000 1.42600E-01 0.00000E+00 1.42084E-01 0.00000E+00 5.15755E-04
 31.000 1.41867E-01 0.00000E+00 1.41630E-01 0.00000E+00 2.37728E-04
 32.000 1.39958E-01 0.00000E+00 1.39838E-01 0.00000E+00 1.19839E-04
 33.000 1.36928E-01 0.00000E+00 1.36879E-01 0.00000E+00 4.98198E-05
 34.000 1.32937E-01 0.00000E+00 1.32911E-01 0.00000E+00 2.63369E-05
 35.000 1.28095E-01 0.00000E+00 1.28084E-01 0.00000E+00 1.10027E-05
 36.000 1.22565E-01 0.00000E+00 1.22559E-01 0.00000E+00 5.44141E-06
 37.000 1.16484E-01 0.00000E+00 1.16481E-01 0.00000E+00 2.32370E-06
 38.000 1.09976E-01 0.00000E+00 1.09975E-01 0.00000E+00 1.02716E-06
 39.000 1.03158E-01 0.00000E+00 1.03158E-01 0.00000E+00 4.65321E-07
 40.000 9.61394E-02 0.00000E+00 9.61392E-02 0.00000E+00 1.69046E-07
 42.000 8.18959E-02 0.00000E+00 8.18959E-02 0.00000E+00 3.02655E-08
 44.000 6.79686E-02 0.00000E+00 6.79686E-02 0.00000E+00 5.40768E-09
 46.000 5.49730E-02 0.00000E+00 5.49730E-02 0.00000E+00 9.11087E-10
 48.000 4.34168E-02 0.00000E+00 4.34168E-02 0.00000E+00 1.46430E-10
 50.000 3.33166E-02 0.00000E+00 3.33166E-02 0.00000E+00 0.00000E+00
 52.000 2.47589E-02 0.00000E+00 2.47589E-02 0.00000E+00 0.00000E+00
 54.000 1.78038E-02 0.00000E+00 1.78038E-02 0.00000E+00 0.00000E+00
 56.000 1.23577E-02 0.00000E+00 1.23577E-02 0.00000E+00 0.00000E+00
 58.000 8.21669E-03 0.00000E+00 8.21669E-03 0.00000E+00 0.00000E+00
 60.000 5.10847E-03 0.00000E+00 5.10847E-03 0.00000E+00 0.00000E+00
 62.000 2.92191E-03 0.00000E+00 2.92191E-03 0.00000E+00 0.00000E+00
 64.000 1.56489E-03 0.00000E+00 1.56489E-03 0.00000E+00 0.00000E+00
 66.000 7.61325E-04 0.00000E+00 7.61325E-04 0.00000E+00 0.00000E+00
 68.000 3.14163E-04 0.00000E+00 3.14163E-04 0.00000E+00 0.00000E+00
 70.000 8.93624E-05 0.00000E+00 8.93624E-05 0.00000E+00 0.00000E+00
 70.100 8.74931E-05 2.58621E-06 8.49069E-05 0.00000E+00 0.00000E+00
 70.200 8.41034E-05 3.65205E-06 8.04514E-05 0.00000E+00 0.00000E+00
 70.300 8.10254E-05 5.02984E-06 7.59956E-05 0.00000E+00 0.00000E+00
 70.400 7.82968E-05 6.75678E-06 7.15401E-05 0.00000E+00 0.00000E+00
 70.500 7.59388E-05 8.85425E-06 6.70846E-05 0.00000E+00 0.00000E+00
 70.600 7.39489E-05 1.13198E-05 6.26291E-05 0.00000E+00 0.00000E+00
 70.700 7.22942E-05 1.41206E-05 5.81736E-05 0.00000E+00 0.00000E+00
 70.800 7.09067E-05 1.71890E-05 5.37178E-05 0.00000E+00 0.00000E+00
 70.900 6.96830E-05 2.04207E-05 4.92623E-05 0.00000E+00 0.00000E+00
 71.000 6.84867E-05 2.36799E-05 4.48068E-05 0.00000E+00 0.00000E+00
 71.100 6.71571E-05 2.68058E-05 4.03513E-05 0.00000E+00 0.00000E+00
 71.200 6.55223E-05 2.96265E-05 3.58958E-05 0.00000E+00 0.00000E+00
 71.300 6.34137E-05 3.19737E-05 3.14400E-05 0.00000E+00 0.00000E+00
 71.400 6.06838E-05 3.36993E-05 2.69845E-05 0.00000E+00 0.00000E+00
 71.500 5.72211E-05 3.46921E-05 2.25290E-05 0.00000E+00 0.00000E+00
 71.600 5.29621E-05 3.48885E-05 1.80735E-05 0.00000E+00 0.00000E+00
 71.700 4.78979E-05 3.42799E-05 1.36180E-05 0.00000E+00 0.00000E+00
 71.800 4.20747E-05 3.29125E-05 9.16219E-06 0.00000E+00 0.00000E+00
 71.900 3.55891E-05 3.08824E-05 4.70670E-06 0.00000E+00 0.00000E+00
 72.000 2.85750E-05 2.83238E-05 2.51210E-07 0.00000E+00 0.00000E+00
 72.100 2.56332E-05 2.53945E-05 2.38649E-07 0.00000E+00 0.00000E+00
 72.200 2.24866E-05 2.22605E-05 2.26089E-07 0.00000E+00 0.00000E+00
 72.300 1.92938E-05 1.90802E-05 2.13528E-07 0.00000E+00 0.00000E+00
 72.400 1.61947E-05 1.59937E-05 2.00968E-07 0.00000E+00 0.00000E+00
 72.500 1.33005E-05 1.31121E-05 1.88407E-07 0.00000E+00 0.00000E+00
 72.600 1.06905E-05 1.05147E-05 1.75847E-07 0.00000E+00 0.00000E+00
 72.700 8.41144E-06 8.24815E-06 1.63287E-07 0.00000E+00 0.00000E+00
 72.800 6.48028E-06 6.32956E-06 1.50725E-07 0.00000E+00 0.00000E+00
 72.900 4.89029E-06 4.75212E-06 1.38165E-07 0.00000E+00 0.00000E+00
 73.000 3.61627E-06 3.49067E-06 1.25605E-07 0.00000E+00 0.00000E+00
 73.100 2.62171E-06 2.50867E-06 1.13045E-07 0.00000E+00 0.00000E+00
 73.200 1.86447E-06 1.76399E-06 1.00484E-07 0.00000E+00 0.00000E+00
 73.300 1.30144E-06 1.21352E-06 8.79230E-08 0.00000E+00 0.00000E+00
 73.400 8.92146E-07 8.16783E-07 7.53627E-08 0.00000E+00 0.00000E+00
 73.500 6.00638E-07 5.37836E-07 6.28024E-08 0.00000E+00 0.00000E+00
 73.600 3.96699E-07 3.46457E-07 5.02421E-08 0.00000E+00 0.00000E+00
 73.700 2.55994E-07 2.18312E-07 3.76818E-08 0.00000E+00 0.00000E+00
 73.800 1.59671E-07 1.34551E-07 2.51206E-08 0.00000E+00 0.00000E+00
 73.900 9.36694E-08 8.11091E-08 1.25603E-08 0.00000E+00 0.00000E+00
 74.000 4.78163E-08 4.78163E-08 0.00000E+00 0.00000E+00 0.00000E+00
 74.100 2.75655E-08 2.75655E-08 0.00000E+00 0.00000E+00 0.00000E+00
 74.200 1.55382E-08 1.55382E-08 0.00000E+00 0.00000E+00 0.00000E+00
 74.300 8.56289E-09 8.56289E-09 0.00000E+00 0.00000E+00 0.00000E+00
 74.400 4.61345E-09 4.61345E-09 0.00000E+00 0.00000E+00 0.00000E+00
 74.500 2.42975E-09 2.42975E-09 0.00000E+00 0.00000E+00 0.00000E+00
 74.600 1.25081E-09 1.25081E-09 0.00000E+00 0.00000E+00 0.00000E+00
 74.700 6.29339E-10 6.29339E-10 0.00000E+00 0.00000E+00 0.00000E+00
 74.800 3.09446E-10 3.09446E-10 0.00000E+00 0.00000E+00 0.00000E+00
 74.900 1.48700E-10 1.48700E-10 0.00000E+00 0.00000E+00 0.00000E+00
 75.000 6.98257E-11 6.98257E-11 0.00000E+00 0.00000E+00 0.00000E+00
 75.100 3.20384E-11 3.20384E-11 0.00000E+00 0.00000E+00 0.00000E+00
 75.200 1.43634E-11 1.43634E-11 0.00000E+00 0.00000E+00 0.00000E+00
 75.300 6.29106E-12 6.29106E-12 0.00000E+00 0.00000E+00 0.00000E+00
 75.400 2.69219E-12 2.69219E-12 0.00000E+00 0.00000E+00 0.00000E+00
 75.500 1.12553E-12 1.12553E-12 0.00000E+00 0.00000E+00 0.00000E+00
 75.600 4.59681E-13 4.59681E-13 0.00000E+00 0.00000E+00 0.00000E+00
 75.700 1.83394E-13 1.83394E-13 0.00000E+00 0.00000E+00 0.00000E+00
 75.800 7.14651E-14 7.14651E-14 0.00000E+00 0.00000E+00 0.00000E+00
 75.900 2.72033E-14 2.72033E-14 0.00000E+00 0.00000E+00 0.00000E+00
 76.000 1.01138E-14 1.01138E-14 0.00000E+00 0.00000E+00 0.00000E+00
 76.100 3.67244E-15 3.67244E-15 0.00000E+00 0.00000E+00 0.00000E+00
 76.200 1.30231E-15 1.30231E-15 0.00000E+00 0.00000E+00 0.00000E+00
 76.300 4.50950E-16 4.50950E-16 0.00000E+00 0.00000E+00 0.00000E+00
 76.400 1.52491E-16 1.52491E-16 0.00000E+00 0.00000E+00 0.00000E+00
 76.500 5.03495E-17 5.03495E-17 0.00000E+00 0.00000E+00 0.00000E+00
 76.600 1.62312E-17 1.62312E-17 0.00000E+00 0.00000E+00 0.00000E+00
 76.700 5.10834E-18 5.10834E-18 0.00000E+00 0.00000E+00 0.00000E+00
 76.800 1.56931E-18 1.56931E-18 0.00000E+00 0.00000E+00 0.00000E+00
 76.900 4.70630E-19 4.70630E-19 0.00000E+00 0.00000E+00 0.00000E+00
 77.000 1.37759E-19 1.37759E-19 0.00000E+00 0.00000E+00 0.00000E+00
 77.100 3.93547E-20 3.93547E-20 0.00000E+00 0.00000E+00 0.00000E+00
 77.200 1.09716E-20 1.09716E-20 0.00000E+00 0.00000E+00 0.00000E+00
 77.300 2.98442E-21 2.98442E-21 0.00000E+00 0.00000E+00 0.00000E+00
 77.400 7.92171E-22 7.92171E-22 0.00000E+00 0.00000E+00 0.00000E+00
 77.500 2.05149E-22 2.05149E-22 0.00000E+00 0.00000E+00 0.00000E+00
 77.600 5.18290E-23 5.18290E-23 0.00000E+00 0.00000E+00 0.00000E+00
 77.700 1.27731E-23 1.27731E-23 0.00000E+00 0.00000E+00 0.00000E+00
 77.800 3.07017E-24 3.07017E-24 0.00000E+00 0.00000E+00 0.00000E+00
 77.900 7.19831E-25 7.19831E-25 0.00000E+00 0.00000E+00 0.00000E+00
 78.000 1.64597E-25 1.64597E-25 0.00000E+00 0.00000E+00 0.00000E+00
 78.100 3.67036E-26 3.67036E-26 0.00000E+00 0.00000E+00 0.00000E+00
 78.200 7.98107E-27 7.98107E-27 0.00000E+00 0.00000E+00 0.00000E+00
 78.300 1.69200E-27 1.69200E-27 0.00000E+00 0.00000E+00 0.00000E+00
 78.400 3.49788E-28 3.49788E-28 0.00000E+00 0.00000E+00 0.00000E+00
 78.500 7.05015E-29 7.05015E-29 0.00000E+00 0.00000E+00 0.00000E+00
 78.600 1.38535E-29 1.38535E-29 0.00000E+00 0.00000E+00 0.00000E+00
 78.700 2.65376E-30 2.65376E-30 0.00000E+00 0.00000E+00 0.00000E+00
 78.800 4.95491E-31 4.95491E-31 0.00000E+00 0.00000E+00 0.00000E+00
 78.900 9.01923E-32 9.01923E-32 0.00000E+00 0.00000E+00 0.00000E+00
 79.000 1.60027E-32 1.60027E-32 0.00000E+00 0.00000E+00 0.00000E+00
 79.100 2.76749E-33 2.76749E-33 0.00000E+00 0.00000E+00 0.00000E+00
 79.200 4.66485E-34 4.66485E-34 0.00000E+00 0.00000E+00 0.00000E+00
 79.300 7.66251E-35 7.66251E-35 0.00000E+00 0.00000E+00 0.00000E+00
 79.400 1.22686E-35 1.22686E-35 0.00000E+00 0.00000E+00 0.00000E+00
 79.500 1.91441E-36 1.91441E-36 0.00000E+00 0.00000E+00 0.00000E+00
 79.600 2.91127E-37 2.91127E-37 0.00000E+00 0.00000E+00 0.00000E+00
 79.700 4.31445E-38 4.31445E-38 0.00000E+00 0.00000E+00 0.00000E+00
 79.800 6.23006E-39 6.23006E-39 0.00000E+00 0.00000E+00 0.00000E+00
 79.900 8.76801E-40 8.76801E-40 0.00000E+00 0.00000E+00 0.00000E+00
 80.000 1.20248E-40 1.20248E-40 0.00000E+00 0.00000E+00 0.00000E+00
 80.100 1.60715E-41 1.60715E-41 0.00000E+00 0.00000E+00 0.00000E+00
 80.200 2.09354E-42 2.09354E-42 0.00000E+00 0.00000E+00 0.00000E+00
 80.300 2.64845E-43 2.64845E-43 0.00000E+00 0.00000E+00 0.00000E+00
 80.400 3.22299E-44 3.22299E-44 0.00000E+00 0.00000E+00 0.00000E+00
 80.500 4.20390E-45 4.20390E-45 0.00000E+00 0.00000E+00 0.00000E+00
 80.600 0.00000E+00 0.00000E+00 0.00000E+00 0.00000E+00 0.00000E+00
 80.700 0.00000E+00 0.00000E+00 0.00000E+00 0.00000E+00 0.00000E+00
 80.800 0.00000E+00 0.00000E+00 0.00000E+00 0.00000E+00 0.00000E+00
 80.900 0.00000E+00 0.00000E+00 0.00000E+00 0.00000E+00 0.00000E+00
 81.000 0.00000E+00 0.00000E+00 0.00000E+00 0.00000E+00 0.00000E+00
 81.100 0.00000E+00 0.00000E+00 0.00000E+00 0.00000E+00 0.00000E+00
 81.200 0.00000E+00 0.00000E+00 0.00000E+00 0.00000E+00 0.00000E+00
 81.300 0.00000E+00 0.00000E+00 0.00000E+00 0.00000E+00 0.00000E+00
 81.400 0.00000E+00 0.00000E+00 0.00000E+00 0.00000E+00 0.00000E+00
 81.500 0.00000E+00 0.00000E+00 0.00000E+00 0.00000E+00 0.00000E+00
 81.600 0.00000E+00 0.00000E+00 0.00000E+00 0.00000E+00 0.00000E+00
 81.700 0.00000E+00 0.00000E+00 0.00000E+00 0.00000E+00 0.00000E+00
 81.800 0.00000E+00 0.00000E+00 0.00000E+00 0.00000E+00 0.00000E+00
 81.900 0.00000E+00 0.00000E+00 0.00000E+00 0.00000E+00 0.00000E+00
 82.000 0.00000E+00 0.00000E+00 0.00000E+00 0.00000E+00 0.00000E+00
