# n + 209Bi: alpha    DDX spectrum
# E-incident =  63.000
# Angle      = 110.000
# # energies =211
# E-out    Total       Direct    Pre-equil.  Mult. preeq  Compound
  0.700 0.00000E+00 0.00000E+00 0.00000E+00 0.00000E+00 0.00000E+00
  0.800 0.00000E+00 0.00000E+00 0.00000E+00 0.00000E+00 0.00000E+00
  0.900 0.00000E+00 0.00000E+00 0.00000E+00 0.00000E+00 0.00000E+00
  1.000 0.00000E+00 0.00000E+00 0.00000E+00 0.00000E+00 0.00000E+00
  1.100 0.00000E+00 0.00000E+00 0.00000E+00 0.00000E+00 0.00000E+00
  1.200 0.00000E+00 0.00000E+00 0.00000E+00 0.00000E+00 0.00000E+00
  1.300 0.00000E+00 0.00000E+00 0.00000E+00 0.00000E+00 0.00000E+00
  1.400 0.00000E+00 0.00000E+00 0.00000E+00 0.00000E+00 0.00000E+00
  1.500 0.00000E+00 0.00000E+00 0.00000E+00 0.00000E+00 0.00000E+00
  1.600 0.00000E+00 0.00000E+00 0.00000E+00 0.00000E+00 0.00000E+00
  1.700 0.00000E+00 0.00000E+00 0.00000E+00 0.00000E+00 0.00000E+00
  1.800 0.00000E+00 0.00000E+00 0.00000E+00 0.00000E+00 0.00000E+00
  1.900 0.00000E+00 0.00000E+00 0.00000E+00 0.00000E+00 0.00000E+00
  2.000 0.00000E+00 0.00000E+00 0.00000E+00 0.00000E+00 0.00000E+00
  2.200 0.00000E+00 0.00000E+00 0.00000E+00 0.00000E+00 0.00000E+00
  2.400 0.00000E+00 0.00000E+00 0.00000E+00 0.00000E+00 0.00000E+00
  2.600 0.00000E+00 0.00000E+00 0.00000E+00 0.00000E+00 0.00000E+00
  2.800 0.00000E+00 0.00000E+00 0.00000E+00 0.00000E+00 0.00000E+00
  3.000 0.00000E+00 0.00000E+00 0.00000E+00 0.00000E+00 0.00000E+00
  3.200 1.90630E-37 0.00000E+00 1.90630E-37 0.00000E+00 0.00000E+00
  3.400 2.43441E-35 0.00000E+00 2.43441E-35 0.00000E+00 0.00000E+00
  3.600 1.96655E-33 0.00000E+00 1.96655E-33 0.00000E+00 0.00000E+00
  3.800 1.07711E-31 0.00000E+00 1.07711E-31 0.00000E+00 0.00000E+00
  4.000 4.20303E-30 0.00000E+00 4.20303E-30 0.00000E+00 0.00000E+00
  4.500 2.74025E-12 0.00000E+00 1.16675E-26 0.00000E+00 2.74025E-12
  5.000 1.41348E-09 0.00000E+00 7.99804E-24 0.00000E+00 1.41348E-09
  5.500 3.02125E-09 0.00000E+00 1.87868E-21 0.00000E+00 3.02125E-09
  6.000 3.98251E-09 0.00000E+00 1.90477E-19 0.00000E+00 3.98251E-09
  6.500 4.46909E-09 0.00000E+00 9.87434E-18 0.00000E+00 4.46909E-09
  7.000 5.64216E-08 0.00000E+00 2.97525E-16 0.00000E+00 5.64216E-08
  7.500 9.18732E-07 0.00000E+00 5.75398E-15 0.00000E+00 9.18732E-07
  8.000 1.02211E-05 0.00000E+00 7.72936E-14 0.00000E+00 1.02211E-05
  8.500 3.81337E-05 0.00000E+00 7.68316E-13 0.00000E+00 3.81337E-05
  9.000 7.87007E-05 0.00000E+00 5.94752E-12 0.00000E+00 7.87007E-05
  9.500 1.01676E-04 0.00000E+00 3.73581E-11 0.00000E+00 1.01676E-04
 10.000 6.50320E-04 0.00000E+00 1.96728E-10 0.00000E+00 6.50320E-04
 10.500 1.81617E-03 0.00000E+00 8.91462E-10 0.00000E+00 1.81616E-03
 11.000 2.51966E-03 0.00000E+00 3.54903E-09 0.00000E+00 2.51966E-03
 11.500 3.32933E-03 0.00000E+00 1.26250E-08 0.00000E+00 3.32932E-03
 12.000 4.22994E-03 0.00000E+00 4.07019E-08 0.00000E+00 4.22990E-03
 12.500 5.03054E-03 0.00000E+00 1.20361E-07 0.00000E+00 5.03042E-03
 13.000 5.86600E-03 0.00000E+00 3.29948E-07 0.00000E+00 5.86567E-03
 13.500 7.20227E-03 0.00000E+00 8.46320E-07 0.00000E+00 7.20143E-03
 14.000 8.79409E-03 0.00000E+00 2.04802E-06 0.00000E+00 8.79204E-03
 14.500 9.91258E-03 0.00000E+00 4.70990E-06 0.00000E+00 9.90787E-03
 15.000 1.12264E-02 0.00000E+00 1.03591E-05 0.00000E+00 1.12161E-02
 15.500 1.34282E-02 0.00000E+00 2.19048E-05 0.00000E+00 1.34063E-02
 16.000 1.62203E-02 0.00000E+00 4.47212E-05 0.00000E+00 1.61756E-02
 16.500 2.22011E-02 0.00000E+00 8.84259E-05 0.00000E+00 2.21127E-02
 17.000 2.47409E-02 0.00000E+00 1.69639E-04 0.00000E+00 2.45713E-02
 17.500 2.73988E-02 0.00000E+00 3.16084E-04 0.00000E+00 2.70827E-02
 18.000 2.95564E-02 0.00000E+00 5.71697E-04 0.00000E+00 2.89847E-02
 18.500 3.18921E-02 0.00000E+00 1.00165E-03 0.00000E+00 3.08904E-02
 19.000 3.33940E-02 0.00000E+00 1.69338E-03 0.00000E+00 3.17006E-02
 19.500 3.47644E-02 0.00000E+00 2.74673E-03 0.00000E+00 3.20176E-02
 20.000 3.57689E-02 0.00000E+00 4.24800E-03 0.00000E+00 3.15209E-02
 21.000 3.82917E-02 0.00000E+00 8.65216E-03 0.00000E+00 2.96396E-02
 22.000 3.86183E-02 0.00000E+00 1.42909E-02 0.00000E+00 2.43273E-02
 23.000 3.87564E-02 0.00000E+00 2.00117E-02 0.00000E+00 1.87447E-02
 24.000 3.88169E-02 0.00000E+00 2.50212E-02 0.00000E+00 1.37956E-02
 25.000 3.87939E-02 0.00000E+00 2.90141E-02 0.00000E+00 9.77980E-03
 26.000 3.82758E-02 0.00000E+00 3.19604E-02 0.00000E+00 6.31537E-03
 27.000 3.55686E-02 0.00000E+00 3.39420E-02 0.00000E+00 1.62660E-03
 28.000 3.55100E-02 0.00000E+00 3.50765E-02 0.00000E+00 4.33515E-04
 29.000 3.57562E-02 0.00000E+00 3.54847E-02 0.00000E+00 2.71429E-04
 30.000 3.54468E-02 0.00000E+00 3.52813E-02 0.00000E+00 1.65458E-04
 31.000 3.46463E-02 0.00000E+00 3.45695E-02 0.00000E+00 7.68224E-05
 32.000 3.34533E-02 0.00000E+00 3.34433E-02 0.00000E+00 1.00013E-05
 33.000 3.19944E-02 0.00000E+00 3.19875E-02 0.00000E+00 6.86537E-06
 34.000 3.02803E-02 0.00000E+00 3.02761E-02 0.00000E+00 4.20900E-06
 35.000 2.83771E-02 0.00000E+00 2.83756E-02 0.00000E+00 1.50538E-06
 36.000 2.63432E-02 0.00000E+00 2.63428E-02 0.00000E+00 3.82578E-07
 37.000 2.42274E-02 0.00000E+00 2.42271E-02 0.00000E+00 2.54065E-07
 38.000 2.20714E-02 0.00000E+00 2.20713E-02 0.00000E+00 1.29359E-07
 39.000 1.99108E-02 0.00000E+00 1.99108E-02 0.00000E+00 3.61993E-08
 40.000 1.78151E-02 0.00000E+00 1.78151E-02 0.00000E+00 1.55246E-08
 42.000 1.39331E-02 0.00000E+00 1.39331E-02 0.00000E+00 3.52007E-09
 44.000 1.05572E-02 0.00000E+00 1.05572E-02 0.00000E+00 5.65769E-10
 46.000 7.73976E-03 0.00000E+00 7.73976E-03 0.00000E+00 2.41188E-12
 48.000 5.47934E-03 0.00000E+00 5.47934E-03 0.00000E+00 0.00000E+00
 50.000 3.73599E-03 0.00000E+00 3.73599E-03 0.00000E+00 0.00000E+00
 52.000 2.44512E-03 0.00000E+00 2.44512E-03 0.00000E+00 0.00000E+00
 54.000 1.52957E-03 0.00000E+00 1.52957E-03 0.00000E+00 0.00000E+00
 56.000 9.09633E-04 0.00000E+00 9.09633E-04 0.00000E+00 0.00000E+00
 58.000 5.10637E-04 0.00000E+00 5.10637E-04 0.00000E+00 0.00000E+00
 60.000 2.67987E-04 0.00000E+00 2.67987E-04 0.00000E+00 0.00000E+00
 62.000 1.29671E-04 0.00000E+00 1.29671E-04 0.00000E+00 0.00000E+00
 64.000 5.66144E-05 0.00000E+00 5.66144E-05 0.00000E+00 0.00000E+00
 66.000 2.14868E-05 0.00000E+00 2.14868E-05 0.00000E+00 0.00000E+00
 68.000 6.56771E-06 0.00000E+00 6.56771E-06 0.00000E+00 0.00000E+00
 70.000 1.30342E-06 0.00000E+00 1.30342E-06 0.00000E+00 0.00000E+00
 70.100 1.26865E-06 3.02474E-08 1.23840E-06 0.00000E+00 0.00000E+00
 70.200 1.21611E-06 4.27246E-08 1.17339E-06 0.00000E+00 0.00000E+00
 70.300 1.16723E-06 5.88594E-08 1.10837E-06 0.00000E+00 0.00000E+00
 70.400 1.12244E-06 7.90905E-08 1.04335E-06 0.00000E+00 0.00000E+00
 70.500 1.08201E-06 1.03672E-07 9.78339E-07 0.00000E+00 0.00000E+00
 70.600 1.04591E-06 1.32581E-07 9.13325E-07 0.00000E+00 0.00000E+00
 70.700 1.01375E-06 1.65437E-07 8.48310E-07 0.00000E+00 0.00000E+00
 70.800 9.84742E-07 2.01452E-07 7.83290E-07 0.00000E+00 0.00000E+00
 70.900 9.57685E-07 2.39410E-07 7.18276E-07 0.00000E+00 0.00000E+00
 71.000 9.30981E-07 2.77719E-07 6.53261E-07 0.00000E+00 0.00000E+00
 71.100 9.02748E-07 3.14501E-07 5.88247E-07 0.00000E+00 0.00000E+00
 71.200 8.70968E-07 3.47736E-07 5.23232E-07 0.00000E+00 0.00000E+00
 71.300 8.33661E-07 3.75449E-07 4.58213E-07 0.00000E+00 0.00000E+00
 71.400 7.89095E-07 3.95897E-07 3.93198E-07 0.00000E+00 0.00000E+00
 71.500 7.35948E-07 4.07764E-07 3.28183E-07 0.00000E+00 0.00000E+00
 71.600 6.73464E-07 4.10295E-07 2.63169E-07 0.00000E+00 0.00000E+00
 71.700 6.01528E-07 4.03374E-07 1.98154E-07 0.00000E+00 0.00000E+00
 71.800 5.20665E-07 3.87531E-07 1.33135E-07 0.00000E+00 0.00000E+00
 71.900 4.32000E-07 3.63880E-07 6.81200E-08 0.00000E+00 0.00000E+00
 72.000 3.37090E-07 3.33984E-07 3.10544E-09 0.00000E+00 0.00000E+00
 72.100 3.02640E-07 2.99690E-07 2.95017E-09 0.00000E+00 0.00000E+00
 72.200 2.65735E-07 2.62940E-07 2.79490E-09 0.00000E+00 0.00000E+00
 72.300 2.28235E-07 2.25596E-07 2.63962E-09 0.00000E+00 0.00000E+00
 72.400 1.91788E-07 1.89304E-07 2.48435E-09 0.00000E+00 0.00000E+00
 72.500 1.57706E-07 1.55377E-07 2.32908E-09 0.00000E+00 0.00000E+00
 72.600 1.26928E-07 1.24755E-07 2.17381E-09 0.00000E+00 0.00000E+00
 72.700 1.00014E-07 9.79959E-08 2.01854E-09 0.00000E+00 0.00000E+00
 72.800 7.71754E-08 7.53122E-08 1.86326E-09 0.00000E+00 0.00000E+00
 72.900 5.83411E-08 5.66331E-08 1.70799E-09 0.00000E+00 0.00000E+00
 73.000 4.32237E-08 4.16710E-08 1.55272E-09 0.00000E+00 0.00000E+00
 73.100 3.14006E-08 3.00031E-08 1.39745E-09 0.00000E+00 0.00000E+00
 73.200 2.23805E-08 2.11384E-08 1.24218E-09 0.00000E+00 0.00000E+00
 73.300 1.56593E-08 1.45724E-08 1.08690E-09 0.00000E+00 0.00000E+00
 73.400 1.07618E-08 9.83020E-09 9.31629E-10 0.00000E+00 0.00000E+00
 73.500 7.26469E-09 6.48833E-09 7.76360E-10 0.00000E+00 0.00000E+00
 73.600 4.81115E-09 4.19006E-09 6.21090E-10 0.00000E+00 0.00000E+00
 73.700 3.11308E-09 2.64726E-09 4.65820E-10 0.00000E+00 0.00000E+00
 73.800 1.94665E-09 1.63611E-09 3.10539E-10 0.00000E+00 0.00000E+00
 73.900 1.14443E-09 9.89161E-10 1.55270E-10 0.00000E+00 0.00000E+00
 74.000 5.84928E-10 5.84928E-10 0.00000E+00 0.00000E+00 0.00000E+00
 74.100 3.38284E-10 3.38284E-10 0.00000E+00 0.00000E+00 0.00000E+00
 74.200 1.91321E-10 1.91321E-10 0.00000E+00 0.00000E+00 0.00000E+00
 74.300 1.05801E-10 1.05801E-10 0.00000E+00 0.00000E+00 0.00000E+00
 74.400 5.72077E-11 5.72077E-11 0.00000E+00 0.00000E+00 0.00000E+00
 74.500 3.02417E-11 3.02417E-11 0.00000E+00 0.00000E+00 0.00000E+00
 74.600 1.56280E-11 1.56280E-11 0.00000E+00 0.00000E+00 0.00000E+00
 74.700 7.89429E-12 7.89429E-12 0.00000E+00 0.00000E+00 0.00000E+00
 74.800 3.89741E-12 3.89741E-12 0.00000E+00 0.00000E+00 0.00000E+00
 74.900 1.88065E-12 1.88065E-12 0.00000E+00 0.00000E+00 0.00000E+00
 75.000 8.86859E-13 8.86859E-13 0.00000E+00 0.00000E+00 0.00000E+00
 75.100 4.08684E-13 4.08684E-13 0.00000E+00 0.00000E+00 0.00000E+00
 75.200 1.84026E-13 1.84026E-13 0.00000E+00 0.00000E+00 0.00000E+00
 75.300 8.09607E-14 8.09607E-14 0.00000E+00 0.00000E+00 0.00000E+00
 75.400 3.48018E-14 3.48018E-14 0.00000E+00 0.00000E+00 0.00000E+00
 75.500 1.46153E-14 1.46153E-14 0.00000E+00 0.00000E+00 0.00000E+00
 75.600 5.99607E-15 5.99607E-15 0.00000E+00 0.00000E+00 0.00000E+00
 75.700 2.40300E-15 2.40300E-15 0.00000E+00 0.00000E+00 0.00000E+00
 75.800 9.40607E-16 9.40607E-16 0.00000E+00 0.00000E+00 0.00000E+00
 75.900 3.59638E-16 3.59638E-16 0.00000E+00 0.00000E+00 0.00000E+00
 76.000 1.34297E-16 1.34297E-16 0.00000E+00 0.00000E+00 0.00000E+00
 76.100 4.89759E-17 4.89759E-17 0.00000E+00 0.00000E+00 0.00000E+00
 76.200 1.74414E-17 1.74414E-17 0.00000E+00 0.00000E+00 0.00000E+00
 76.300 6.06448E-18 6.06448E-18 0.00000E+00 0.00000E+00 0.00000E+00
 76.400 2.05902E-18 2.05902E-18 0.00000E+00 0.00000E+00 0.00000E+00
 76.500 6.82512E-19 6.82512E-19 0.00000E+00 0.00000E+00 0.00000E+00
 76.600 2.20855E-19 2.20855E-19 0.00000E+00 0.00000E+00 0.00000E+00
 76.700 6.97623E-20 6.97623E-20 0.00000E+00 0.00000E+00 0.00000E+00
 76.800 2.15065E-20 2.15065E-20 0.00000E+00 0.00000E+00 0.00000E+00
 76.900 6.47140E-21 6.47140E-21 0.00000E+00 0.00000E+00 0.00000E+00
 77.000 1.90033E-21 1.90033E-21 0.00000E+00 0.00000E+00 0.00000E+00
 77.100 5.44538E-22 5.44538E-22 0.00000E+00 0.00000E+00 0.00000E+00
 77.200 1.52250E-22 1.52250E-22 0.00000E+00 0.00000E+00 0.00000E+00
 77.300 4.15277E-23 4.15277E-23 0.00000E+00 0.00000E+00 0.00000E+00
 77.400 1.10515E-23 1.10515E-23 0.00000E+00 0.00000E+00 0.00000E+00
 77.500 2.86900E-24 2.86900E-24 0.00000E+00 0.00000E+00 0.00000E+00
 77.600 7.26492E-25 7.26492E-25 0.00000E+00 0.00000E+00 0.00000E+00
 77.700 1.79429E-25 1.79429E-25 0.00000E+00 0.00000E+00 0.00000E+00
 77.800 4.32149E-26 4.32149E-26 0.00000E+00 0.00000E+00 0.00000E+00
 77.900 1.01513E-26 1.01513E-26 0.00000E+00 0.00000E+00 0.00000E+00
 78.000 2.32530E-27 2.32530E-27 0.00000E+00 0.00000E+00 0.00000E+00
 78.100 5.19374E-28 5.19374E-28 0.00000E+00 0.00000E+00 0.00000E+00
 78.200 1.13110E-28 1.13110E-28 0.00000E+00 0.00000E+00 0.00000E+00
 78.300 2.40138E-29 2.40138E-29 0.00000E+00 0.00000E+00 0.00000E+00
 78.400 4.97100E-30 4.97100E-30 0.00000E+00 0.00000E+00 0.00000E+00
 78.500 1.00317E-30 1.00317E-30 0.00000E+00 0.00000E+00 0.00000E+00
 78.600 1.97347E-31 1.97347E-31 0.00000E+00 0.00000E+00 0.00000E+00
 78.700 3.78445E-32 3.78445E-32 0.00000E+00 0.00000E+00 0.00000E+00
 78.800 7.07304E-33 7.07304E-33 0.00000E+00 0.00000E+00 0.00000E+00
 78.900 1.28867E-33 1.28867E-33 0.00000E+00 0.00000E+00 0.00000E+00
 79.000 2.28830E-34 2.28830E-34 0.00000E+00 0.00000E+00 0.00000E+00
 79.100 3.96058E-35 3.96058E-35 0.00000E+00 0.00000E+00 0.00000E+00
 79.200 6.68097E-36 6.68097E-36 0.00000E+00 0.00000E+00 0.00000E+00
 79.300 1.09397E-36 1.09397E-36 0.00000E+00 0.00000E+00 0.00000E+00
 79.400 1.71494E-37 1.71494E-37 0.00000E+00 0.00000E+00 0.00000E+00
 79.500 2.68426E-38 2.68426E-38 0.00000E+00 0.00000E+00 0.00000E+00
 79.600 0.00000E+00 0.00000E+00 0.00000E+00 0.00000E+00 0.00000E+00
 79.700 0.00000E+00 0.00000E+00 0.00000E+00 0.00000E+00 0.00000E+00
 79.800 0.00000E+00 0.00000E+00 0.00000E+00 0.00000E+00 0.00000E+00
 79.900 0.00000E+00 0.00000E+00 0.00000E+00 0.00000E+00 0.00000E+00
 80.000 0.00000E+00 0.00000E+00 0.00000E+00 0.00000E+00 0.00000E+00
 80.100 0.00000E+00 0.00000E+00 0.00000E+00 0.00000E+00 0.00000E+00
 80.200 0.00000E+00 0.00000E+00 0.00000E+00 0.00000E+00 0.00000E+00
 80.300 0.00000E+00 0.00000E+00 0.00000E+00 0.00000E+00 0.00000E+00
 80.400 0.00000E+00 0.00000E+00 0.00000E+00 0.00000E+00 0.00000E+00
 80.500 0.00000E+00 0.00000E+00 0.00000E+00 0.00000E+00 0.00000E+00
 80.600 0.00000E+00 0.00000E+00 0.00000E+00 0.00000E+00 0.00000E+00
 80.700 0.00000E+00 0.00000E+00 0.00000E+00 0.00000E+00 0.00000E+00
 80.800 0.00000E+00 0.00000E+00 0.00000E+00 0.00000E+00 0.00000E+00
 80.900 0.00000E+00 0.00000E+00 0.00000E+00 0.00000E+00 0.00000E+00
 81.000 0.00000E+00 0.00000E+00 0.00000E+00 0.00000E+00 0.00000E+00
 81.100 0.00000E+00 0.00000E+00 0.00000E+00 0.00000E+00 0.00000E+00
 81.200 0.00000E+00 0.00000E+00 0.00000E+00 0.00000E+00 0.00000E+00
 81.300 0.00000E+00 0.00000E+00 0.00000E+00 0.00000E+00 0.00000E+00
 81.400 0.00000E+00 0.00000E+00 0.00000E+00 0.00000E+00 0.00000E+00
 81.500 0.00000E+00 0.00000E+00 0.00000E+00 0.00000E+00 0.00000E+00
 81.600 0.00000E+00 0.00000E+00 0.00000E+00 0.00000E+00 0.00000E+00
 81.700 0.00000E+00 0.00000E+00 0.00000E+00 0.00000E+00 0.00000E+00
 81.800 0.00000E+00 0.00000E+00 0.00000E+00 0.00000E+00 0.00000E+00
 81.900 0.00000E+00 0.00000E+00 0.00000E+00 0.00000E+00 0.00000E+00
 82.000 0.00000E+00 0.00000E+00 0.00000E+00 0.00000E+00 0.00000E+00
