# n + 209Bi: alpha    DDX spectrum
# E-incident =  63.000
# Angle      = 110.000
# # energies =211
# E-out    Total       Direct    Pre-equil.  Mult. preeq  Compound
  0.700 0.00000E+00 0.00000E+00 0.00000E+00 0.00000E+00 0.00000E+00
  0.800 0.00000E+00 0.00000E+00 0.00000E+00 0.00000E+00 0.00000E+00
  0.900 0.00000E+00 0.00000E+00 0.00000E+00 0.00000E+00 0.00000E+00
  1.000 0.00000E+00 0.00000E+00 0.00000E+00 0.00000E+00 0.00000E+00
  1.100 0.00000E+00 0.00000E+00 0.00000E+00 0.00000E+00 0.00000E+00
  1.200 0.00000E+00 0.00000E+00 0.00000E+00 0.00000E+00 0.00000E+00
  1.300 0.00000E+00 0.00000E+00 0.00000E+00 0.00000E+00 0.00000E+00
  1.400 0.00000E+00 0.00000E+00 0.00000E+00 0.00000E+00 0.00000E+00
  1.500 0.00000E+00 0.00000E+00 0.00000E+00 0.00000E+00 0.00000E+00
  1.600 0.00000E+00 0.00000E+00 0.00000E+00 0.00000E+00 0.00000E+00
  1.700 0.00000E+00 0.00000E+00 0.00000E+00 0.00000E+00 0.00000E+00
  1.800 0.00000E+00 0.00000E+00 0.00000E+00 0.00000E+00 0.00000E+00
  1.900 0.00000E+00 0.00000E+00 0.00000E+00 0.00000E+00 0.00000E+00
  2.000 0.00000E+00 0.00000E+00 0.00000E+00 0.00000E+00 0.00000E+00
  2.200 0.00000E+00 0.00000E+00 0.00000E+00 0.00000E+00 0.00000E+00
  2.400 0.00000E+00 0.00000E+00 0.00000E+00 0.00000E+00 0.00000E+00
  2.600 0.00000E+00 0.00000E+00 0.00000E+00 0.00000E+00 0.00000E+00
  2.800 4.45613E-43 0.00000E+00 4.45613E-43 0.00000E+00 0.00000E+00
  3.000 1.73199E-40 0.00000E+00 1.73199E-40 0.00000E+00 0.00000E+00
  3.200 1.91436E-37 0.00000E+00 1.91436E-37 0.00000E+00 0.00000E+00
  3.400 2.43451E-35 0.00000E+00 2.43451E-35 0.00000E+00 0.00000E+00
  3.600 1.96651E-33 0.00000E+00 1.96651E-33 0.00000E+00 0.00000E+00
  3.800 1.07712E-31 0.00000E+00 1.07712E-31 0.00000E+00 0.00000E+00
  4.000 4.20303E-30 0.00000E+00 4.20303E-30 0.00000E+00 0.00000E+00
  4.500 1.16673E-26 0.00000E+00 1.16673E-26 0.00000E+00 0.00000E+00
  5.000 7.99824E-24 0.00000E+00 7.99824E-24 0.00000E+00 0.00000E+00
  5.500 1.87869E-21 0.00000E+00 1.87869E-21 0.00000E+00 0.00000E+00
  6.000 1.90479E-19 0.00000E+00 1.90479E-19 0.00000E+00 0.00000E+00
  6.500 9.87437E-18 0.00000E+00 9.87437E-18 0.00000E+00 0.00000E+00
  7.000 2.97526E-16 0.00000E+00 2.97526E-16 0.00000E+00 0.00000E+00
  7.500 5.75399E-15 0.00000E+00 5.75399E-15 0.00000E+00 0.00000E+00
  8.000 2.39128E-11 0.00000E+00 7.72940E-14 0.00000E+00 2.38355E-11
  8.500 9.38352E-10 0.00000E+00 7.68321E-13 0.00000E+00 9.37583E-10
  9.000 8.18748E-07 0.00000E+00 5.94751E-12 0.00000E+00 8.18742E-07
  9.500 2.09551E-05 0.00000E+00 3.73580E-11 0.00000E+00 2.09551E-05
 10.000 1.31883E-04 0.00000E+00 1.96727E-10 0.00000E+00 1.31883E-04
 10.500 4.35371E-04 0.00000E+00 8.91459E-10 0.00000E+00 4.35370E-04
 11.000 9.49208E-04 0.00000E+00 3.54902E-09 0.00000E+00 9.49205E-04
 11.500 1.73148E-03 0.00000E+00 1.26249E-08 0.00000E+00 1.73146E-03
 12.000 2.44900E-03 0.00000E+00 4.07017E-08 0.00000E+00 2.44896E-03
 12.500 3.30749E-03 0.00000E+00 1.20361E-07 0.00000E+00 3.30737E-03
 13.000 4.28735E-03 0.00000E+00 3.29946E-07 0.00000E+00 4.28702E-03
 13.500 5.95830E-03 0.00000E+00 8.46316E-07 0.00000E+00 5.95745E-03
 14.000 8.10665E-03 0.00000E+00 2.04801E-06 0.00000E+00 8.10460E-03
 14.500 1.09514E-02 0.00000E+00 4.70989E-06 0.00000E+00 1.09467E-02
 15.000 1.49204E-02 0.00000E+00 1.03590E-05 0.00000E+00 1.49101E-02
 15.500 2.00667E-02 0.00000E+00 2.19047E-05 0.00000E+00 2.00448E-02
 16.000 2.63655E-02 0.00000E+00 4.47210E-05 0.00000E+00 2.63207E-02
 16.500 3.35706E-02 0.00000E+00 8.84255E-05 0.00000E+00 3.34822E-02
 17.000 4.19961E-02 0.00000E+00 1.69639E-04 0.00000E+00 4.18265E-02
 17.500 5.19994E-02 0.00000E+00 3.16083E-04 0.00000E+00 5.16834E-02
 18.000 6.18189E-02 0.00000E+00 5.71695E-04 0.00000E+00 6.12472E-02
 18.500 7.08055E-02 0.00000E+00 1.00165E-03 0.00000E+00 6.98039E-02
 19.000 7.95409E-02 0.00000E+00 1.69337E-03 0.00000E+00 7.78475E-02
 19.500 8.60441E-02 0.00000E+00 2.74672E-03 0.00000E+00 8.32974E-02
 20.000 8.86137E-02 0.00000E+00 4.24798E-03 0.00000E+00 8.43657E-02
 21.000 8.45676E-02 0.00000E+00 8.65212E-03 0.00000E+00 7.59155E-02
 22.000 7.08922E-02 0.00000E+00 1.42909E-02 0.00000E+00 5.66013E-02
 23.000 5.53288E-02 0.00000E+00 2.00116E-02 0.00000E+00 3.53172E-02
 24.000 4.45831E-02 0.00000E+00 2.50211E-02 0.00000E+00 1.95620E-02
 25.000 3.87334E-02 0.00000E+00 2.90140E-02 0.00000E+00 9.71940E-03
 26.000 3.66047E-02 0.00000E+00 3.19603E-02 0.00000E+00 4.64441E-03
 27.000 3.60421E-02 0.00000E+00 3.39418E-02 0.00000E+00 2.10031E-03
 28.000 3.60089E-02 0.00000E+00 3.50763E-02 0.00000E+00 9.32550E-04
 29.000 3.58944E-02 0.00000E+00 3.54846E-02 0.00000E+00 4.09828E-04
 30.000 3.54533E-02 0.00000E+00 3.52812E-02 0.00000E+00 1.72075E-04
 31.000 3.46438E-02 0.00000E+00 3.45693E-02 0.00000E+00 7.45186E-05
 32.000 3.34737E-02 0.00000E+00 3.34432E-02 0.00000E+00 3.05480E-05
 33.000 3.20003E-02 0.00000E+00 3.19873E-02 0.00000E+00 1.30013E-05
 34.000 3.02812E-02 0.00000E+00 3.02760E-02 0.00000E+00 5.24060E-06
 35.000 2.83777E-02 0.00000E+00 2.83754E-02 0.00000E+00 2.22228E-06
 36.000 2.63436E-02 0.00000E+00 2.63427E-02 0.00000E+00 8.97558E-07
 37.000 2.42274E-02 0.00000E+00 2.42270E-02 0.00000E+00 3.75913E-07
 38.000 2.20713E-02 0.00000E+00 2.20712E-02 0.00000E+00 1.48039E-07
 39.000 1.99108E-02 0.00000E+00 1.99107E-02 0.00000E+00 6.24427E-08
 40.000 1.78150E-02 0.00000E+00 1.78150E-02 0.00000E+00 2.15865E-08
 42.000 1.39330E-02 0.00000E+00 1.39330E-02 0.00000E+00 3.56124E-09
 44.000 1.05571E-02 0.00000E+00 1.05571E-02 0.00000E+00 5.38360E-10
 46.000 7.73973E-03 0.00000E+00 7.73973E-03 0.00000E+00 0.00000E+00
 48.000 5.47932E-03 0.00000E+00 5.47932E-03 0.00000E+00 0.00000E+00
 50.000 3.73597E-03 0.00000E+00 3.73597E-03 0.00000E+00 0.00000E+00
 52.000 2.44511E-03 0.00000E+00 2.44511E-03 0.00000E+00 0.00000E+00
 54.000 1.52956E-03 0.00000E+00 1.52956E-03 0.00000E+00 0.00000E+00
 56.000 9.09629E-04 0.00000E+00 9.09629E-04 0.00000E+00 0.00000E+00
 58.000 5.10634E-04 0.00000E+00 5.10634E-04 0.00000E+00 0.00000E+00
 60.000 2.67986E-04 0.00000E+00 2.67986E-04 0.00000E+00 0.00000E+00
 62.000 1.29670E-04 0.00000E+00 1.29670E-04 0.00000E+00 0.00000E+00
 64.000 5.66140E-05 0.00000E+00 5.66140E-05 0.00000E+00 0.00000E+00
 66.000 2.14866E-05 0.00000E+00 2.14866E-05 0.00000E+00 0.00000E+00
 68.000 6.56759E-06 0.00000E+00 6.56759E-06 0.00000E+00 0.00000E+00
 70.000 1.30337E-06 0.00000E+00 1.30337E-06 0.00000E+00 0.00000E+00
 70.100 1.26867E-06 3.03132E-08 1.23836E-06 0.00000E+00 0.00000E+00
 70.200 1.21616E-06 4.28127E-08 1.17334E-06 0.00000E+00 0.00000E+00
 70.300 1.16730E-06 5.89741E-08 1.10833E-06 0.00000E+00 0.00000E+00
 70.400 1.12255E-06 7.92359E-08 1.04331E-06 0.00000E+00 0.00000E+00
 70.500 1.08215E-06 1.03852E-07 9.78302E-07 0.00000E+00 0.00000E+00
 70.600 1.04609E-06 1.32797E-07 9.13289E-07 0.00000E+00 0.00000E+00
 70.700 1.01396E-06 1.65688E-07 8.48276E-07 0.00000E+00 0.00000E+00
 70.800 9.84996E-07 2.01738E-07 7.83259E-07 0.00000E+00 0.00000E+00
 70.900 9.57972E-07 2.39726E-07 7.18246E-07 0.00000E+00 0.00000E+00
 71.000 9.31293E-07 2.78060E-07 6.53233E-07 0.00000E+00 0.00000E+00
 71.100 9.03078E-07 3.14858E-07 5.88221E-07 0.00000E+00 0.00000E+00
 71.200 8.71307E-07 3.48099E-07 5.23208E-07 0.00000E+00 0.00000E+00
 71.300 8.33999E-07 3.75808E-07 4.58190E-07 0.00000E+00 0.00000E+00
 71.400 7.89421E-07 3.96243E-07 3.93178E-07 0.00000E+00 0.00000E+00
 71.500 7.36254E-07 4.08089E-07 3.28165E-07 0.00000E+00 0.00000E+00
 71.600 6.73743E-07 4.10590E-07 2.63152E-07 0.00000E+00 0.00000E+00
 71.700 6.01775E-07 4.03635E-07 1.98140E-07 0.00000E+00 0.00000E+00
 71.800 5.20877E-07 3.87755E-07 1.33122E-07 0.00000E+00 0.00000E+00
 71.900 4.32176E-07 3.64067E-07 6.81094E-08 0.00000E+00 0.00000E+00
 72.000 3.37232E-07 3.34135E-07 3.09675E-09 0.00000E+00 0.00000E+00
 72.100 3.02750E-07 2.99808E-07 2.94192E-09 0.00000E+00 0.00000E+00
 72.200 2.65816E-07 2.63029E-07 2.78708E-09 0.00000E+00 0.00000E+00
 72.300 2.28293E-07 2.25661E-07 2.63223E-09 0.00000E+00 0.00000E+00
 72.400 1.91826E-07 1.89349E-07 2.47740E-09 0.00000E+00 0.00000E+00
 72.500 1.57729E-07 1.55407E-07 2.32256E-09 0.00000E+00 0.00000E+00
 72.600 1.26941E-07 1.24773E-07 2.16773E-09 0.00000E+00 0.00000E+00
 72.700 1.00020E-07 9.80069E-08 2.01289E-09 0.00000E+00 0.00000E+00
 72.800 7.71758E-08 7.53178E-08 1.85805E-09 0.00000E+00 0.00000E+00
 72.900 5.83386E-08 5.66354E-08 1.70321E-09 0.00000E+00 0.00000E+00
 73.000 4.32197E-08 4.16713E-08 1.54838E-09 0.00000E+00 0.00000E+00
 73.100 3.13960E-08 3.00024E-08 1.39354E-09 0.00000E+00 0.00000E+00
 73.200 2.23760E-08 2.11373E-08 1.23871E-09 0.00000E+00 0.00000E+00
 73.300 1.56551E-08 1.45713E-08 1.08386E-09 0.00000E+00 0.00000E+00
 73.400 1.07582E-08 9.82918E-09 9.29023E-10 0.00000E+00 0.00000E+00
 73.500 7.26169E-09 6.48750E-09 7.74188E-10 0.00000E+00 0.00000E+00
 73.600 4.80878E-09 4.18943E-09 6.19353E-10 0.00000E+00 0.00000E+00
 73.700 3.11132E-09 2.64680E-09 4.64517E-10 0.00000E+00 0.00000E+00
 73.800 1.94547E-09 1.63580E-09 3.09670E-10 0.00000E+00 0.00000E+00
 73.900 1.14378E-09 9.88947E-10 1.54835E-10 0.00000E+00 0.00000E+00
 74.000 5.84790E-10 5.84790E-10 0.00000E+00 0.00000E+00 0.00000E+00
 74.100 3.38198E-10 3.38198E-10 0.00000E+00 0.00000E+00 0.00000E+00
 74.200 1.91269E-10 1.91269E-10 0.00000E+00 0.00000E+00 0.00000E+00
 74.300 1.05769E-10 1.05769E-10 0.00000E+00 0.00000E+00 0.00000E+00
 74.400 5.71898E-11 5.71898E-11 0.00000E+00 0.00000E+00 0.00000E+00
 74.500 3.02316E-11 3.02316E-11 0.00000E+00 0.00000E+00 0.00000E+00
 74.600 1.56225E-11 1.56225E-11 0.00000E+00 0.00000E+00 0.00000E+00
 74.700 7.89138E-12 7.89138E-12 0.00000E+00 0.00000E+00 0.00000E+00
 74.800 3.89591E-12 3.89591E-12 0.00000E+00 0.00000E+00 0.00000E+00
 74.900 1.87989E-12 1.87989E-12 0.00000E+00 0.00000E+00 0.00000E+00
 75.000 8.86486E-13 8.86486E-13 0.00000E+00 0.00000E+00 0.00000E+00
 75.100 4.08505E-13 4.08505E-13 0.00000E+00 0.00000E+00 0.00000E+00
 75.200 1.83942E-13 1.83942E-13 0.00000E+00 0.00000E+00 0.00000E+00
 75.300 8.09222E-14 8.09222E-14 0.00000E+00 0.00000E+00 0.00000E+00
 75.400 3.47846E-14 3.47846E-14 0.00000E+00 0.00000E+00 0.00000E+00
 75.500 1.46078E-14 1.46078E-14 0.00000E+00 0.00000E+00 0.00000E+00
 75.600 5.99291E-15 5.99291E-15 0.00000E+00 0.00000E+00 0.00000E+00
 75.700 2.40169E-15 2.40169E-15 0.00000E+00 0.00000E+00 0.00000E+00
 75.800 9.40077E-16 9.40077E-16 0.00000E+00 0.00000E+00 0.00000E+00
 75.900 3.59430E-16 3.59430E-16 0.00000E+00 0.00000E+00 0.00000E+00
 76.000 1.34217E-16 1.34217E-16 0.00000E+00 0.00000E+00 0.00000E+00
 76.100 4.89458E-17 4.89458E-17 0.00000E+00 0.00000E+00 0.00000E+00
 76.200 1.74303E-17 1.74303E-17 0.00000E+00 0.00000E+00 0.00000E+00
 76.300 6.06055E-18 6.06055E-18 0.00000E+00 0.00000E+00 0.00000E+00
 76.400 2.05764E-18 2.05764E-18 0.00000E+00 0.00000E+00 0.00000E+00
 76.500 6.82045E-19 6.82045E-19 0.00000E+00 0.00000E+00 0.00000E+00
 76.600 2.20701E-19 2.20701E-19 0.00000E+00 0.00000E+00 0.00000E+00
 76.700 6.97121E-20 6.97121E-20 0.00000E+00 0.00000E+00 0.00000E+00
 76.800 2.14906E-20 2.14906E-20 0.00000E+00 0.00000E+00 0.00000E+00
 76.900 6.46651E-21 6.46651E-21 0.00000E+00 0.00000E+00 0.00000E+00
 77.000 1.89886E-21 1.89886E-21 0.00000E+00 0.00000E+00 0.00000E+00
 77.100 5.44108E-22 5.44108E-22 0.00000E+00 0.00000E+00 0.00000E+00
 77.200 1.52127E-22 1.52127E-22 0.00000E+00 0.00000E+00 0.00000E+00
 77.300 4.14935E-23 4.14935E-23 0.00000E+00 0.00000E+00 0.00000E+00
 77.400 1.10422E-23 1.10422E-23 0.00000E+00 0.00000E+00 0.00000E+00
 77.500 2.86653E-24 2.86653E-24 0.00000E+00 0.00000E+00 0.00000E+00
 77.600 7.25854E-25 7.25854E-25 0.00000E+00 0.00000E+00 0.00000E+00
 77.700 1.79268E-25 1.79268E-25 0.00000E+00 0.00000E+00 0.00000E+00
 77.800 4.31754E-26 4.31754E-26 0.00000E+00 0.00000E+00 0.00000E+00
 77.900 1.01418E-26 1.01418E-26 0.00000E+00 0.00000E+00 0.00000E+00
 78.000 2.32309E-27 2.32309E-27 0.00000E+00 0.00000E+00 0.00000E+00
 78.100 5.18871E-28 5.18871E-28 0.00000E+00 0.00000E+00 0.00000E+00
 78.200 1.12998E-28 1.12998E-28 0.00000E+00 0.00000E+00 0.00000E+00
 78.300 2.39896E-29 2.39896E-29 0.00000E+00 0.00000E+00 0.00000E+00
 78.400 4.96588E-30 4.96588E-30 0.00000E+00 0.00000E+00 0.00000E+00
 78.500 1.00212E-30 1.00212E-30 0.00000E+00 0.00000E+00 0.00000E+00
 78.600 1.97138E-31 1.97138E-31 0.00000E+00 0.00000E+00 0.00000E+00
 78.700 3.78034E-32 3.78034E-32 0.00000E+00 0.00000E+00 0.00000E+00
 78.800 7.06525E-33 7.06525E-33 0.00000E+00 0.00000E+00 0.00000E+00
 78.900 1.28723E-33 1.28723E-33 0.00000E+00 0.00000E+00 0.00000E+00
 79.000 2.28582E-34 2.28582E-34 0.00000E+00 0.00000E+00 0.00000E+00
 79.100 3.95619E-35 3.95619E-35 0.00000E+00 0.00000E+00 0.00000E+00
 79.200 6.67334E-36 6.67334E-36 0.00000E+00 0.00000E+00 0.00000E+00
 79.300 1.09691E-36 1.09691E-36 0.00000E+00 0.00000E+00 0.00000E+00
 79.400 1.75739E-37 1.75739E-37 0.00000E+00 0.00000E+00 0.00000E+00
 79.500 2.74386E-38 2.74386E-38 0.00000E+00 0.00000E+00 0.00000E+00
 79.600 4.17492E-39 4.17492E-39 0.00000E+00 0.00000E+00 0.00000E+00
 79.700 6.19033E-40 6.19033E-40 0.00000E+00 0.00000E+00 0.00000E+00
 79.800 8.94295E-41 8.94295E-41 0.00000E+00 0.00000E+00 0.00000E+00
 79.900 1.25907E-41 1.25907E-41 0.00000E+00 0.00000E+00 0.00000E+00
 80.000 1.72780E-42 1.72780E-42 0.00000E+00 0.00000E+00 0.00000E+00
 80.100 2.31214E-43 2.31214E-43 0.00000E+00 0.00000E+00 0.00000E+00
 80.200 2.94273E-44 2.94273E-44 0.00000E+00 0.00000E+00 0.00000E+00
 80.300 4.20390E-45 4.20390E-45 0.00000E+00 0.00000E+00 0.00000E+00
 80.400 0.00000E+00 0.00000E+00 0.00000E+00 0.00000E+00 0.00000E+00
 80.500 0.00000E+00 0.00000E+00 0.00000E+00 0.00000E+00 0.00000E+00
 80.600 0.00000E+00 0.00000E+00 0.00000E+00 0.00000E+00 0.00000E+00
 80.700 0.00000E+00 0.00000E+00 0.00000E+00 0.00000E+00 0.00000E+00
 80.800 0.00000E+00 0.00000E+00 0.00000E+00 0.00000E+00 0.00000E+00
 80.900 0.00000E+00 0.00000E+00 0.00000E+00 0.00000E+00 0.00000E+00
 81.000 0.00000E+00 0.00000E+00 0.00000E+00 0.00000E+00 0.00000E+00
 81.100 0.00000E+00 0.00000E+00 0.00000E+00 0.00000E+00 0.00000E+00
 81.200 0.00000E+00 0.00000E+00 0.00000E+00 0.00000E+00 0.00000E+00
 81.300 0.00000E+00 0.00000E+00 0.00000E+00 0.00000E+00 0.00000E+00
 81.400 0.00000E+00 0.00000E+00 0.00000E+00 0.00000E+00 0.00000E+00
 81.500 0.00000E+00 0.00000E+00 0.00000E+00 0.00000E+00 0.00000E+00
 81.600 0.00000E+00 0.00000E+00 0.00000E+00 0.00000E+00 0.00000E+00
 81.700 0.00000E+00 0.00000E+00 0.00000E+00 0.00000E+00 0.00000E+00
 81.800 0.00000E+00 0.00000E+00 0.00000E+00 0.00000E+00 0.00000E+00
 81.900 0.00000E+00 0.00000E+00 0.00000E+00 0.00000E+00 0.00000E+00
 82.000 0.00000E+00 0.00000E+00 0.00000E+00 0.00000E+00 0.00000E+00
