# n + 209Bi: alpha    DDX spectrum
# E-incident =  63.000
# 
# # energies =211
# E-out    Total       Direct    Pre-equil.  Mult. preeq  Compound
  0.700 0.00000E+00 0.00000E+00 0.00000E+00 0.00000E+00 0.00000E+00
  0.800 0.00000E+00 0.00000E+00 0.00000E+00 0.00000E+00 0.00000E+00
  0.900 0.00000E+00 0.00000E+00 0.00000E+00 0.00000E+00 0.00000E+00
  1.000 0.00000E+00 0.00000E+00 0.00000E+00 0.00000E+00 0.00000E+00
  1.100 0.00000E+00 0.00000E+00 0.00000E+00 0.00000E+00 0.00000E+00
  1.200 0.00000E+00 0.00000E+00 0.00000E+00 0.00000E+00 0.00000E+00
  1.300 0.00000E+00 0.00000E+00 0.00000E+00 0.00000E+00 0.00000E+00
  1.400 0.00000E+00 0.00000E+00 0.00000E+00 0.00000E+00 0.00000E+00
  1.500 0.00000E+00 0.00000E+00 0.00000E+00 0.00000E+00 0.00000E+00
  1.600 0.00000E+00 0.00000E+00 0.00000E+00 0.00000E+00 0.00000E+00
  1.700 0.00000E+00 0.00000E+00 0.00000E+00 0.00000E+00 0.00000E+00
  1.800 0.00000E+00 0.00000E+00 0.00000E+00 0.00000E+00 0.00000E+00
  1.900 0.00000E+00 0.00000E+00 0.00000E+00 0.00000E+00 0.00000E+00
  2.000 0.00000E+00 0.00000E+00 0.00000E+00 0.00000E+00 0.00000E+00
  2.200 0.00000E+00 0.00000E+00 0.00000E+00 0.00000E+00 0.00000E+00
  2.400 0.00000E+00 0.00000E+00 0.00000E+00 0.00000E+00 0.00000E+00
  2.600 0.00000E+00 0.00000E+00 0.00000E+00 0.00000E+00 0.00000E+00
  2.800 4.86251E-43 0.00000E+00 4.86251E-43 0.00000E+00 0.00000E+00
  3.000 1.89395E-40 0.00000E+00 1.89395E-40 0.00000E+00 0.00000E+00
  3.200 2.09246E-37 0.00000E+00 2.09246E-37 0.00000E+00 0.00000E+00
  3.400 2.66089E-35 0.00000E+00 2.66089E-35 0.00000E+00 0.00000E+00
  3.600 2.14914E-33 0.00000E+00 2.14914E-33 0.00000E+00 0.00000E+00
  3.800 1.17696E-31 0.00000E+00 1.17696E-31 0.00000E+00 0.00000E+00
  4.000 4.59229E-30 0.00000E+00 4.59229E-30 0.00000E+00 0.00000E+00
  4.500 1.27440E-26 0.00000E+00 1.27440E-26 0.00000E+00 0.00000E+00
  5.000 8.73336E-24 0.00000E+00 8.73336E-24 0.00000E+00 0.00000E+00
  5.500 2.05077E-21 0.00000E+00 2.05077E-21 0.00000E+00 0.00000E+00
  6.000 2.07864E-19 0.00000E+00 2.07864E-19 0.00000E+00 0.00000E+00
  6.500 1.07723E-17 0.00000E+00 1.07723E-17 0.00000E+00 0.00000E+00
  7.000 3.24473E-16 0.00000E+00 3.24473E-16 0.00000E+00 0.00000E+00
  7.500 6.27338E-15 0.00000E+00 6.27338E-15 0.00000E+00 0.00000E+00
  8.000 3.13455E-11 0.00000E+00 8.42468E-14 0.00000E+00 3.12612E-11
  8.500 9.07171E-10 0.00000E+00 8.37150E-13 0.00000E+00 9.06334E-10
  9.000 6.07622E-07 0.00000E+00 6.47829E-12 0.00000E+00 6.07616E-07
  9.500 1.27698E-05 0.00000E+00 4.06791E-11 0.00000E+00 1.27698E-05
 10.000 8.54910E-05 0.00000E+00 2.14148E-10 0.00000E+00 8.54908E-05
 10.500 2.78066E-04 0.00000E+00 9.70076E-10 0.00000E+00 2.78065E-04
 11.000 6.14713E-04 0.00000E+00 3.86087E-09 0.00000E+00 6.14710E-04
 11.500 1.15502E-03 0.00000E+00 1.37298E-08 0.00000E+00 1.15500E-03
 12.000 1.70134E-03 0.00000E+00 4.42497E-08 0.00000E+00 1.70130E-03
 12.500 2.35306E-03 0.00000E+00 1.30809E-07 0.00000E+00 2.35293E-03
 13.000 2.98111E-03 0.00000E+00 3.58482E-07 0.00000E+00 2.98076E-03
 13.500 4.04997E-03 0.00000E+00 9.19165E-07 0.00000E+00 4.04905E-03
 14.000 5.46078E-03 0.00000E+00 2.22370E-06 0.00000E+00 5.45856E-03
 14.500 7.16660E-03 0.00000E+00 5.11219E-06 0.00000E+00 7.16148E-03
 15.000 9.37894E-03 0.00000E+00 1.12403E-05 0.00000E+00 9.36770E-03
 15.500 1.27242E-02 0.00000E+00 2.37604E-05 0.00000E+00 1.27005E-02
 16.000 1.68243E-02 0.00000E+00 4.84929E-05 0.00000E+00 1.67758E-02
 16.500 2.10637E-02 0.00000E+00 9.58549E-05 0.00000E+00 2.09679E-02
 17.000 2.62621E-02 0.00000E+00 1.83823E-04 0.00000E+00 2.60783E-02
 17.500 3.37298E-02 0.00000E+00 3.42399E-04 0.00000E+00 3.33874E-02
 18.000 4.08371E-02 0.00000E+00 6.19085E-04 0.00000E+00 4.02180E-02
 18.500 4.73746E-02 0.00000E+00 1.08431E-03 0.00000E+00 4.62903E-02
 19.000 5.45193E-02 0.00000E+00 1.83250E-03 0.00000E+00 5.26868E-02
 19.500 6.10765E-02 0.00000E+00 2.97132E-03 0.00000E+00 5.81052E-02
 20.000 6.57736E-02 0.00000E+00 4.59378E-03 0.00000E+00 6.11798E-02
 21.000 6.80277E-02 0.00000E+00 9.35013E-03 0.00000E+00 5.86776E-02
 22.000 6.34499E-02 0.00000E+00 1.54327E-02 0.00000E+00 4.80172E-02
 23.000 5.48133E-02 0.00000E+00 2.15949E-02 0.00000E+00 3.32184E-02
 24.000 4.74902E-02 0.00000E+00 2.69815E-02 0.00000E+00 2.05087E-02
 25.000 4.31864E-02 0.00000E+00 3.12641E-02 0.00000E+00 1.19222E-02
 26.000 4.07442E-02 0.00000E+00 3.44139E-02 0.00000E+00 6.33032E-03
 27.000 3.99611E-02 0.00000E+00 3.65208E-02 0.00000E+00 3.44029E-03
 28.000 3.94262E-02 0.00000E+00 3.77129E-02 0.00000E+00 1.71336E-03
 29.000 3.90012E-02 0.00000E+00 3.81234E-02 0.00000E+00 8.77839E-04
 30.000 3.83062E-02 0.00000E+00 3.78763E-02 0.00000E+00 4.29842E-04
 31.000 3.72846E-02 0.00000E+00 3.70841E-02 0.00000E+00 2.00480E-04
 32.000 3.59498E-02 0.00000E+00 3.58483E-02 0.00000E+00 1.01479E-04
 33.000 3.43039E-02 0.00000E+00 3.42612E-02 0.00000E+00 4.26629E-05
 34.000 3.24257E-02 0.00000E+00 3.24032E-02 0.00000E+00 2.25381E-05
 35.000 3.03551E-02 0.00000E+00 3.03456E-02 0.00000E+00 9.48958E-06
 36.000 2.81561E-02 0.00000E+00 2.81514E-02 0.00000E+00 4.69593E-06
 37.000 2.58737E-02 0.00000E+00 2.58717E-02 0.00000E+00 2.01700E-06
 38.000 2.35521E-02 0.00000E+00 2.35512E-02 0.00000E+00 8.94394E-07
 39.000 2.12314E-02 0.00000E+00 2.12310E-02 0.00000E+00 4.06806E-07
 40.000 1.89832E-02 0.00000E+00 1.89830E-02 0.00000E+00 1.48777E-07
 42.000 1.48249E-02 0.00000E+00 1.48249E-02 0.00000E+00 2.69616E-08
 44.000 1.12164E-02 0.00000E+00 1.12164E-02 0.00000E+00 4.87143E-09
 46.000 8.21052E-03 0.00000E+00 8.21052E-03 0.00000E+00 8.33149E-10
 48.000 5.80352E-03 0.00000E+00 5.80352E-03 0.00000E+00 1.36842E-10
 50.000 3.95080E-03 0.00000E+00 3.95080E-03 0.00000E+00 0.00000E+00
 52.000 2.58146E-03 0.00000E+00 2.58146E-03 0.00000E+00 0.00000E+00
 54.000 1.61215E-03 0.00000E+00 1.61215E-03 0.00000E+00 0.00000E+00
 56.000 9.57063E-04 0.00000E+00 9.57063E-04 0.00000E+00 0.00000E+00
 58.000 5.36305E-04 0.00000E+00 5.36305E-04 0.00000E+00 0.00000E+00
 60.000 2.80920E-04 0.00000E+00 2.80920E-04 0.00000E+00 0.00000E+00
 62.000 1.35641E-04 0.00000E+00 1.35641E-04 0.00000E+00 0.00000E+00
 64.000 5.90786E-05 0.00000E+00 5.90786E-05 0.00000E+00 0.00000E+00
 66.000 2.23523E-05 0.00000E+00 2.23523E-05 0.00000E+00 0.00000E+00
 68.000 6.80185E-06 0.00000E+00 6.80185E-06 0.00000E+00 0.00000E+00
 70.000 1.33918E-06 0.00000E+00 1.33918E-06 0.00000E+00 0.00000E+00
 70.100 1.30358E-06 3.12001E-08 1.27238E-06 0.00000E+00 0.00000E+00
 70.200 1.24964E-06 4.40604E-08 1.20558E-06 0.00000E+00 0.00000E+00
 70.300 1.19946E-06 6.06859E-08 1.13877E-06 0.00000E+00 0.00000E+00
 70.400 1.15350E-06 8.15266E-08 1.07197E-06 0.00000E+00 0.00000E+00
 70.500 1.11201E-06 1.06842E-07 1.00517E-06 0.00000E+00 0.00000E+00
 70.600 1.07497E-06 1.36604E-07 9.38369E-07 0.00000E+00 0.00000E+00
 70.700 1.04199E-06 1.70420E-07 8.71568E-07 0.00000E+00 0.00000E+00
 70.800 1.01224E-06 2.07474E-07 8.04762E-07 0.00000E+00 0.00000E+00
 70.900 9.84474E-07 2.46514E-07 7.37961E-07 0.00000E+00 0.00000E+00
 71.000 9.57059E-07 2.85899E-07 6.71160E-07 0.00000E+00 0.00000E+00
 71.100 9.28054E-07 3.23696E-07 6.04358E-07 0.00000E+00 0.00000E+00
 71.200 8.95384E-07 3.57827E-07 5.37557E-07 0.00000E+00 0.00000E+00
 71.300 8.57013E-07 3.86262E-07 4.70751E-07 0.00000E+00 0.00000E+00
 71.400 8.11164E-07 4.07214E-07 4.03950E-07 0.00000E+00 0.00000E+00
 71.500 7.56483E-07 4.19334E-07 3.37148E-07 0.00000E+00 0.00000E+00
 71.600 6.92197E-07 4.21850E-07 2.70347E-07 0.00000E+00 0.00000E+00
 71.700 6.18194E-07 4.14648E-07 2.03546E-07 0.00000E+00 0.00000E+00
 71.800 5.35020E-07 3.98280E-07 1.36740E-07 0.00000E+00 0.00000E+00
 71.900 4.43835E-07 3.73896E-07 6.99384E-08 0.00000E+00 0.00000E+00
 72.000 3.46244E-07 3.43107E-07 3.13718E-09 0.00000E+00 0.00000E+00
 72.100 3.10792E-07 3.07812E-07 2.98033E-09 0.00000E+00 0.00000E+00
 72.200 2.72833E-07 2.70010E-07 2.82347E-09 0.00000E+00 0.00000E+00
 72.300 2.34279E-07 2.31613E-07 2.66660E-09 0.00000E+00 0.00000E+00
 72.400 1.96821E-07 1.94311E-07 2.50974E-09 0.00000E+00 0.00000E+00
 72.500 1.61805E-07 1.59452E-07 2.35289E-09 0.00000E+00 0.00000E+00
 72.600 1.30194E-07 1.27998E-07 2.19603E-09 0.00000E+00 0.00000E+00
 72.700 1.02561E-07 1.00521E-07 2.03917E-09 0.00000E+00 0.00000E+00
 72.800 7.91176E-08 7.72352E-08 1.88231E-09 0.00000E+00 0.00000E+00
 72.900 5.97910E-08 5.80655E-08 1.72545E-09 0.00000E+00 0.00000E+00
 73.000 4.42833E-08 4.27147E-08 1.56859E-09 0.00000E+00 0.00000E+00
 73.100 3.21587E-08 3.07469E-08 1.41173E-09 0.00000E+00 0.00000E+00
 73.200 2.29117E-08 2.16569E-08 1.25488E-09 0.00000E+00 0.00000E+00
 73.300 1.60240E-08 1.49260E-08 1.09801E-09 0.00000E+00 0.00000E+00
 73.400 1.10071E-08 1.00660E-08 9.41153E-10 0.00000E+00 0.00000E+00
 73.500 7.42638E-09 6.64208E-09 7.84296E-10 0.00000E+00 0.00000E+00
 73.600 4.91556E-09 4.28812E-09 6.27439E-10 0.00000E+00 0.00000E+00
 73.700 3.17900E-09 2.70841E-09 4.70582E-10 0.00000E+00 0.00000E+00
 73.800 1.98711E-09 1.67340E-09 3.13714E-10 0.00000E+00 0.00000E+00
 73.900 1.16824E-09 1.01138E-09 1.56857E-10 0.00000E+00 0.00000E+00
 74.000 5.97877E-10 5.97877E-10 0.00000E+00 0.00000E+00 0.00000E+00
 74.100 3.45658E-10 3.45658E-10 0.00000E+00 0.00000E+00 0.00000E+00
 74.200 1.95425E-10 1.95425E-10 0.00000E+00 0.00000E+00 0.00000E+00
 74.300 1.08032E-10 1.08032E-10 0.00000E+00 0.00000E+00 0.00000E+00
 74.400 5.83937E-11 5.83937E-11 0.00000E+00 0.00000E+00 0.00000E+00
 74.500 3.08573E-11 3.08573E-11 0.00000E+00 0.00000E+00 0.00000E+00
 74.600 1.59402E-11 1.59402E-11 0.00000E+00 0.00000E+00 0.00000E+00
 74.700 8.04894E-12 8.04894E-12 0.00000E+00 0.00000E+00 0.00000E+00
 74.800 3.97223E-12 3.97223E-12 0.00000E+00 0.00000E+00 0.00000E+00
 74.900 1.91600E-12 1.91600E-12 0.00000E+00 0.00000E+00 0.00000E+00
 75.000 9.03170E-13 9.03170E-13 0.00000E+00 0.00000E+00 0.00000E+00
 75.100 4.16033E-13 4.16033E-13 0.00000E+00 0.00000E+00 0.00000E+00
 75.200 1.87259E-13 1.87259E-13 0.00000E+00 0.00000E+00 0.00000E+00
 75.300 8.23492E-14 8.23492E-14 0.00000E+00 0.00000E+00 0.00000E+00
 75.400 3.53841E-14 3.53841E-14 0.00000E+00 0.00000E+00 0.00000E+00
 75.500 1.48537E-14 1.48537E-14 0.00000E+00 0.00000E+00 0.00000E+00
 75.600 6.09138E-15 6.09138E-15 0.00000E+00 0.00000E+00 0.00000E+00
 75.700 2.44019E-15 2.44019E-15 0.00000E+00 0.00000E+00 0.00000E+00
 75.800 9.54772E-16 9.54772E-16 0.00000E+00 0.00000E+00 0.00000E+00
 75.900 3.64905E-16 3.64905E-16 0.00000E+00 0.00000E+00 0.00000E+00
 76.000 1.36209E-16 1.36209E-16 0.00000E+00 0.00000E+00 0.00000E+00
 76.100 4.96532E-17 4.96532E-17 0.00000E+00 0.00000E+00 0.00000E+00
 76.200 1.76756E-17 1.76756E-17 0.00000E+00 0.00000E+00 0.00000E+00
 76.300 6.14355E-18 6.14355E-18 0.00000E+00 0.00000E+00 0.00000E+00
 76.400 2.08507E-18 2.08507E-18 0.00000E+00 0.00000E+00 0.00000E+00
 76.500 6.90887E-19 6.90887E-19 0.00000E+00 0.00000E+00 0.00000E+00
 76.600 2.23484E-19 2.23484E-19 0.00000E+00 0.00000E+00 0.00000E+00
 76.700 7.05670E-20 7.05670E-20 0.00000E+00 0.00000E+00 0.00000E+00
 76.800 2.17470E-20 2.17470E-20 0.00000E+00 0.00000E+00 0.00000E+00
 76.900 6.54151E-21 6.54151E-21 0.00000E+00 0.00000E+00 0.00000E+00
 77.000 1.92028E-21 1.92028E-21 0.00000E+00 0.00000E+00 0.00000E+00
 77.100 5.50075E-22 5.50075E-22 0.00000E+00 0.00000E+00 0.00000E+00
 77.200 1.53750E-22 1.53750E-22 0.00000E+00 0.00000E+00 0.00000E+00
 77.300 4.19238E-23 4.19238E-23 0.00000E+00 0.00000E+00 0.00000E+00
 77.400 1.11536E-23 1.11536E-23 0.00000E+00 0.00000E+00 0.00000E+00
 77.500 2.89465E-24 2.89465E-24 0.00000E+00 0.00000E+00 0.00000E+00
 77.600 7.32779E-25 7.32779E-25 0.00000E+00 0.00000E+00 0.00000E+00
 77.700 1.80931E-25 1.80931E-25 0.00000E+00 0.00000E+00 0.00000E+00
 77.800 4.35651E-26 4.35651E-26 0.00000E+00 0.00000E+00 0.00000E+00
 77.900 1.02309E-26 1.02309E-26 0.00000E+00 0.00000E+00 0.00000E+00
 78.000 2.34293E-27 2.34293E-27 0.00000E+00 0.00000E+00 0.00000E+00
 78.100 5.23181E-28 5.23181E-28 0.00000E+00 0.00000E+00 0.00000E+00
 78.200 1.13911E-28 1.13911E-28 0.00000E+00 0.00000E+00 0.00000E+00
 78.300 2.41781E-29 2.41781E-29 0.00000E+00 0.00000E+00 0.00000E+00
 78.400 5.00382E-30 5.00382E-30 0.00000E+00 0.00000E+00 0.00000E+00
 78.500 1.00956E-30 1.00956E-30 0.00000E+00 0.00000E+00 0.00000E+00
 78.600 1.98561E-31 1.98561E-31 0.00000E+00 0.00000E+00 0.00000E+00
 78.700 3.80686E-32 3.80686E-32 0.00000E+00 0.00000E+00 0.00000E+00
 78.800 7.11341E-33 7.11341E-33 0.00000E+00 0.00000E+00 0.00000E+00
 78.900 1.29575E-33 1.29575E-33 0.00000E+00 0.00000E+00 0.00000E+00
 79.000 2.30051E-34 2.30051E-34 0.00000E+00 0.00000E+00 0.00000E+00
 79.100 3.98086E-35 3.98086E-35 0.00000E+00 0.00000E+00 0.00000E+00
 79.200 6.71370E-36 6.71370E-36 0.00000E+00 0.00000E+00 0.00000E+00
 79.300 1.10334E-36 1.10334E-36 0.00000E+00 0.00000E+00 0.00000E+00
 79.400 1.76737E-37 1.76737E-37 0.00000E+00 0.00000E+00 0.00000E+00
 79.500 2.75895E-38 2.75895E-38 0.00000E+00 0.00000E+00 0.00000E+00
 79.600 4.19712E-39 4.19712E-39 0.00000E+00 0.00000E+00 0.00000E+00
 79.700 6.22213E-40 6.22213E-40 0.00000E+00 0.00000E+00 0.00000E+00
 79.800 8.98751E-41 8.98751E-41 0.00000E+00 0.00000E+00 0.00000E+00
 79.900 1.26509E-41 1.26509E-41 0.00000E+00 0.00000E+00 0.00000E+00
 80.000 1.73621E-42 1.73621E-42 0.00000E+00 0.00000E+00 0.00000E+00
 80.100 2.31214E-43 2.31214E-43 0.00000E+00 0.00000E+00 0.00000E+00
 80.200 2.94273E-44 2.94273E-44 0.00000E+00 0.00000E+00 0.00000E+00
 80.300 4.20390E-45 4.20390E-45 0.00000E+00 0.00000E+00 0.00000E+00
 80.400 0.00000E+00 0.00000E+00 0.00000E+00 0.00000E+00 0.00000E+00
 80.500 0.00000E+00 0.00000E+00 0.00000E+00 0.00000E+00 0.00000E+00
 80.600 0.00000E+00 0.00000E+00 0.00000E+00 0.00000E+00 0.00000E+00
 80.700 0.00000E+00 0.00000E+00 0.00000E+00 0.00000E+00 0.00000E+00
 80.800 0.00000E+00 0.00000E+00 0.00000E+00 0.00000E+00 0.00000E+00
 80.900 0.00000E+00 0.00000E+00 0.00000E+00 0.00000E+00 0.00000E+00
 81.000 0.00000E+00 0.00000E+00 0.00000E+00 0.00000E+00 0.00000E+00
 81.100 0.00000E+00 0.00000E+00 0.00000E+00 0.00000E+00 0.00000E+00
 81.200 0.00000E+00 0.00000E+00 0.00000E+00 0.00000E+00 0.00000E+00
 81.300 0.00000E+00 0.00000E+00 0.00000E+00 0.00000E+00 0.00000E+00
 81.400 0.00000E+00 0.00000E+00 0.00000E+00 0.00000E+00 0.00000E+00
 81.500 0.00000E+00 0.00000E+00 0.00000E+00 0.00000E+00 0.00000E+00
 81.600 0.00000E+00 0.00000E+00 0.00000E+00 0.00000E+00 0.00000E+00
 81.700 0.00000E+00 0.00000E+00 0.00000E+00 0.00000E+00 0.00000E+00
 81.800 0.00000E+00 0.00000E+00 0.00000E+00 0.00000E+00 0.00000E+00
 81.900 0.00000E+00 0.00000E+00 0.00000E+00 0.00000E+00 0.00000E+00
 82.000 0.00000E+00 0.00000E+00 0.00000E+00 0.00000E+00 0.00000E+00
