# n + 209Bi: alpha    DDX spectrum
# E-incident =  63.000
# 
# # energies =211
# E-out    Total       Direct    Pre-equil.  Mult. preeq  Compound
  0.700 0.00000E+00 0.00000E+00 0.00000E+00 0.00000E+00 0.00000E+00
  0.800 0.00000E+00 0.00000E+00 0.00000E+00 0.00000E+00 0.00000E+00
  0.900 0.00000E+00 0.00000E+00 0.00000E+00 0.00000E+00 0.00000E+00
  1.000 0.00000E+00 0.00000E+00 0.00000E+00 0.00000E+00 0.00000E+00
  1.100 0.00000E+00 0.00000E+00 0.00000E+00 0.00000E+00 0.00000E+00
  1.200 0.00000E+00 0.00000E+00 0.00000E+00 0.00000E+00 0.00000E+00
  1.300 0.00000E+00 0.00000E+00 0.00000E+00 0.00000E+00 0.00000E+00
  1.400 0.00000E+00 0.00000E+00 0.00000E+00 0.00000E+00 0.00000E+00
  1.500 0.00000E+00 0.00000E+00 0.00000E+00 0.00000E+00 0.00000E+00
  1.600 0.00000E+00 0.00000E+00 0.00000E+00 0.00000E+00 0.00000E+00
  1.700 0.00000E+00 0.00000E+00 0.00000E+00 0.00000E+00 0.00000E+00
  1.800 0.00000E+00 0.00000E+00 0.00000E+00 0.00000E+00 0.00000E+00
  1.900 0.00000E+00 0.00000E+00 0.00000E+00 0.00000E+00 0.00000E+00
  2.000 0.00000E+00 0.00000E+00 0.00000E+00 0.00000E+00 0.00000E+00
  2.200 0.00000E+00 0.00000E+00 0.00000E+00 0.00000E+00 0.00000E+00
  2.400 0.00000E+00 0.00000E+00 0.00000E+00 0.00000E+00 0.00000E+00
  2.600 0.00000E+00 0.00000E+00 0.00000E+00 0.00000E+00 0.00000E+00
  2.800 4.76441E-43 0.00000E+00 4.76441E-43 0.00000E+00 0.00000E+00
  3.000 1.86504E-40 0.00000E+00 1.86504E-40 0.00000E+00 0.00000E+00
  3.200 2.07184E-37 0.00000E+00 2.07184E-37 0.00000E+00 0.00000E+00
  3.400 2.64911E-35 0.00000E+00 2.64911E-35 0.00000E+00 0.00000E+00
  3.600 2.15137E-33 0.00000E+00 2.15137E-33 0.00000E+00 0.00000E+00
  3.800 1.18464E-31 0.00000E+00 1.18464E-31 0.00000E+00 0.00000E+00
  4.000 4.64764E-30 0.00000E+00 4.64764E-30 0.00000E+00 0.00000E+00
  4.500 1.30753E-26 0.00000E+00 1.30753E-26 0.00000E+00 0.00000E+00
  5.000 9.08385E-24 0.00000E+00 9.08385E-24 0.00000E+00 0.00000E+00
  5.500 2.16247E-21 0.00000E+00 2.16247E-21 0.00000E+00 0.00000E+00
  6.000 2.22208E-19 0.00000E+00 2.22208E-19 0.00000E+00 0.00000E+00
  6.500 1.16744E-17 0.00000E+00 1.16744E-17 0.00000E+00 0.00000E+00
  7.000 3.56501E-16 0.00000E+00 3.56501E-16 0.00000E+00 0.00000E+00
  7.500 6.98780E-15 0.00000E+00 6.98780E-15 0.00000E+00 0.00000E+00
  8.000 3.13564E-11 0.00000E+00 9.51383E-14 0.00000E+00 3.12612E-11
  8.500 9.07292E-10 0.00000E+00 9.58461E-13 0.00000E+00 9.06334E-10
  9.000 6.07623E-07 0.00000E+00 7.51983E-12 0.00000E+00 6.07616E-07
  9.500 1.27698E-05 0.00000E+00 4.78745E-11 0.00000E+00 1.27698E-05
 10.000 8.54911E-05 0.00000E+00 2.55530E-10 0.00000E+00 8.54908E-05
 10.500 2.78066E-04 0.00000E+00 1.17366E-09 0.00000E+00 2.78065E-04
 11.000 6.14714E-04 0.00000E+00 4.73631E-09 0.00000E+00 6.14710E-04
 11.500 1.15502E-03 0.00000E+00 1.70785E-08 0.00000E+00 1.15500E-03
 12.000 1.70135E-03 0.00000E+00 5.58145E-08 0.00000E+00 1.70130E-03
 12.500 2.35310E-03 0.00000E+00 1.67317E-07 0.00000E+00 2.35293E-03
 13.000 2.98122E-03 0.00000E+00 4.65003E-07 0.00000E+00 2.98076E-03
 13.500 4.05026E-03 0.00000E+00 1.20917E-06 0.00000E+00 4.04905E-03
 14.000 5.46153E-03 0.00000E+00 2.96687E-06 0.00000E+00 5.45856E-03
 14.500 7.16840E-03 0.00000E+00 6.91800E-06 0.00000E+00 7.16148E-03
 15.000 9.38313E-03 0.00000E+00 1.54287E-05 0.00000E+00 9.36770E-03
 15.500 1.27336E-02 0.00000E+00 3.30837E-05 0.00000E+00 1.27005E-02
 16.000 1.68443E-02 0.00000E+00 6.84976E-05 0.00000E+00 1.67758E-02
 16.500 2.11053E-02 0.00000E+00 1.37367E-04 0.00000E+00 2.09679E-02
 17.000 2.63456E-02 0.00000E+00 2.67284E-04 0.00000E+00 2.60783E-02
 17.500 3.38926E-02 0.00000E+00 5.05182E-04 0.00000E+00 3.33874E-02
 18.000 4.11449E-02 0.00000E+00 9.26930E-04 0.00000E+00 4.02180E-02
 18.500 4.79380E-02 0.00000E+00 1.64769E-03 0.00000E+00 4.62903E-02
 19.000 5.55132E-02 0.00000E+00 2.82639E-03 0.00000E+00 5.26868E-02
 19.500 6.27573E-02 0.00000E+00 4.65216E-03 0.00000E+00 5.81052E-02
 20.000 6.84818E-02 0.00000E+00 7.30200E-03 0.00000E+00 6.11798E-02
 21.000 7.40019E-02 0.00000E+00 1.53244E-02 0.00000E+00 5.86776E-02
 22.000 7.41107E-02 0.00000E+00 2.60935E-02 0.00000E+00 4.80172E-02
 23.000 7.09086E-02 0.00000E+00 3.76901E-02 0.00000E+00 3.32184E-02
 24.000 6.91509E-02 0.00000E+00 4.86422E-02 0.00000E+00 2.05087E-02
 25.000 7.01825E-02 0.00000E+00 5.82603E-02 0.00000E+00 1.19222E-02
 26.000 7.26708E-02 0.00000E+00 6.63404E-02 0.00000E+00 6.33032E-03
 27.000 7.63305E-02 0.00000E+00 7.28902E-02 0.00000E+00 3.44029E-03
 28.000 7.97145E-02 0.00000E+00 7.80011E-02 0.00000E+00 1.71336E-03
 29.000 8.26702E-02 0.00000E+00 8.17924E-02 0.00000E+00 8.77839E-04
 30.000 8.48139E-02 0.00000E+00 8.43840E-02 0.00000E+00 4.29842E-04
 31.000 8.60911E-02 0.00000E+00 8.58906E-02 0.00000E+00 2.00480E-04
 32.000 8.65228E-02 0.00000E+00 8.64213E-02 0.00000E+00 1.01479E-04
 33.000 8.61252E-02 0.00000E+00 8.60826E-02 0.00000E+00 4.26629E-05
 34.000 8.49917E-02 0.00000E+00 8.49692E-02 0.00000E+00 2.25381E-05
 35.000 8.31806E-02 0.00000E+00 8.31711E-02 0.00000E+00 9.48958E-06
 36.000 8.07764E-02 0.00000E+00 8.07717E-02 0.00000E+00 4.69593E-06
 37.000 7.78391E-02 0.00000E+00 7.78371E-02 0.00000E+00 2.01700E-06
 38.000 7.44293E-02 0.00000E+00 7.44284E-02 0.00000E+00 8.94394E-07
 39.000 7.06107E-02 0.00000E+00 7.06102E-02 0.00000E+00 4.06806E-07
 40.000 6.65708E-02 0.00000E+00 6.65706E-02 0.00000E+00 1.48777E-07
 42.000 5.81674E-02 0.00000E+00 5.81674E-02 0.00000E+00 2.69616E-08
 44.000 4.96900E-02 0.00000E+00 4.96900E-02 0.00000E+00 4.87143E-09
 46.000 4.14826E-02 0.00000E+00 4.14826E-02 0.00000E+00 8.33149E-10
 48.000 3.38090E-02 0.00000E+00 3.38090E-02 0.00000E+00 1.36842E-10
 50.000 2.68578E-02 0.00000E+00 2.68578E-02 0.00000E+00 0.00000E+00
 52.000 2.07465E-02 0.00000E+00 2.07465E-02 0.00000E+00 0.00000E+00
 54.000 1.55347E-02 0.00000E+00 1.55347E-02 0.00000E+00 0.00000E+00
 56.000 1.12270E-02 0.00000E+00 1.12270E-02 0.00000E+00 0.00000E+00
 58.000 7.78533E-03 0.00000E+00 7.78533E-03 0.00000E+00 0.00000E+00
 60.000 5.13613E-03 0.00000E+00 5.13613E-03 0.00000E+00 0.00000E+00
 62.000 3.18288E-03 0.00000E+00 3.18288E-03 0.00000E+00 0.00000E+00
 64.000 1.81548E-03 0.00000E+00 1.81548E-03 0.00000E+00 0.00000E+00
 66.000 9.19071E-04 0.00000E+00 9.19071E-04 0.00000E+00 0.00000E+00
 68.000 3.82876E-04 0.00000E+00 3.82876E-04 0.00000E+00 0.00000E+00
 70.000 1.05738E-04 0.00000E+00 1.05738E-04 0.00000E+00 0.00000E+00
 70.100 1.03530E-04 3.06091E-06 1.00469E-04 0.00000E+00 0.00000E+00
 70.200 9.95230E-05 4.32258E-06 9.52004E-05 0.00000E+00 0.00000E+00
 70.300 9.58847E-05 5.95363E-06 8.99310E-05 0.00000E+00 0.00000E+00
 70.400 9.26602E-05 7.99822E-06 8.46620E-05 0.00000E+00 0.00000E+00
 70.500 8.98748E-05 1.04818E-05 7.93930E-05 0.00000E+00 0.00000E+00
 70.600 8.75256E-05 1.34017E-05 7.41240E-05 0.00000E+00 0.00000E+00
 70.700 8.55741E-05 1.67191E-05 6.88550E-05 0.00000E+00 0.00000E+00
 70.800 8.39399E-05 2.03544E-05 6.35855E-05 0.00000E+00 0.00000E+00
 70.900 8.25009E-05 2.41844E-05 5.83165E-05 0.00000E+00 0.00000E+00
 71.000 8.10958E-05 2.80483E-05 5.30475E-05 0.00000E+00 0.00000E+00
 71.100 7.95349E-05 3.17564E-05 4.77785E-05 0.00000E+00 0.00000E+00
 71.200 7.76143E-05 3.51048E-05 4.25095E-05 0.00000E+00 0.00000E+00
 71.300 7.51346E-05 3.78945E-05 3.72400E-05 0.00000E+00 0.00000E+00
 71.400 7.19210E-05 3.99500E-05 3.19710E-05 0.00000E+00 0.00000E+00
 71.500 6.78411E-05 4.11390E-05 2.67020E-05 0.00000E+00 0.00000E+00
 71.600 6.28188E-05 4.13858E-05 2.14330E-05 0.00000E+00 0.00000E+00
 71.700 5.68433E-05 4.06793E-05 1.61640E-05 0.00000E+00 0.00000E+00
 71.800 4.99681E-05 3.90735E-05 1.08946E-05 0.00000E+00 0.00000E+00
 71.900 4.23069E-05 3.66813E-05 5.62554E-06 0.00000E+00 0.00000E+00
 72.000 3.40173E-05 3.36607E-05 3.56527E-07 0.00000E+00 0.00000E+00
 72.100 3.05368E-05 3.01981E-05 3.38701E-07 0.00000E+00 0.00000E+00
 72.200 2.68103E-05 2.64895E-05 3.20875E-07 0.00000E+00 0.00000E+00
 72.300 2.30255E-05 2.27225E-05 3.03047E-07 0.00000E+00 0.00000E+00
 72.400 1.93482E-05 1.90630E-05 2.85221E-07 0.00000E+00 0.00000E+00
 72.500 1.59105E-05 1.56431E-05 2.67395E-07 0.00000E+00 0.00000E+00
 72.600 1.28069E-05 1.25574E-05 2.49569E-07 0.00000E+00 0.00000E+00
 72.700 1.00935E-05 9.86171E-06 2.31743E-07 0.00000E+00 0.00000E+00
 72.800 7.79113E-06 7.57721E-06 2.13916E-07 0.00000E+00 0.00000E+00
 72.900 5.89265E-06 5.69656E-06 1.96090E-07 0.00000E+00 0.00000E+00
 73.000 4.36881E-06 4.19055E-06 1.78263E-07 0.00000E+00 0.00000E+00
 73.100 3.17688E-06 3.01645E-06 1.60437E-07 0.00000E+00 0.00000E+00
 73.200 2.26727E-06 2.12466E-06 1.42611E-07 0.00000E+00 0.00000E+00
 73.300 1.58910E-06 1.46432E-06 1.24784E-07 0.00000E+00 0.00000E+00
 73.400 1.09448E-06 9.87527E-07 1.06958E-07 0.00000E+00 0.00000E+00
 73.500 7.40758E-07 6.51626E-07 8.91317E-08 0.00000E+00 0.00000E+00
 73.600 4.91995E-07 4.20689E-07 7.13057E-08 0.00000E+00 0.00000E+00
 73.700 3.19190E-07 2.65711E-07 5.34796E-08 0.00000E+00 0.00000E+00
 73.800 1.99822E-07 1.64170E-07 3.56521E-08 0.00000E+00 0.00000E+00
 73.900 1.17049E-07 9.92225E-08 1.78261E-08 0.00000E+00 0.00000E+00
 74.000 5.86551E-08 5.86551E-08 0.00000E+00 0.00000E+00 0.00000E+00
 74.100 3.39110E-08 3.39110E-08 0.00000E+00 0.00000E+00 0.00000E+00
 74.200 1.91723E-08 1.91723E-08 0.00000E+00 0.00000E+00 0.00000E+00
 74.300 1.05986E-08 1.05986E-08 0.00000E+00 0.00000E+00 0.00000E+00
 74.400 5.72875E-09 5.72875E-09 0.00000E+00 0.00000E+00 0.00000E+00
 74.500 3.02728E-09 3.02728E-09 0.00000E+00 0.00000E+00 0.00000E+00
 74.600 1.56382E-09 1.56382E-09 0.00000E+00 0.00000E+00 0.00000E+00
 74.700 7.89646E-10 7.89646E-10 0.00000E+00 0.00000E+00 0.00000E+00
 74.800 3.89698E-10 3.89698E-10 0.00000E+00 0.00000E+00 0.00000E+00
 74.900 1.87970E-10 1.87970E-10 0.00000E+00 0.00000E+00 0.00000E+00
 75.000 8.86060E-11 8.86060E-11 0.00000E+00 0.00000E+00 0.00000E+00
 75.100 4.08152E-11 4.08152E-11 0.00000E+00 0.00000E+00 0.00000E+00
 75.200 1.83711E-11 1.83711E-11 0.00000E+00 0.00000E+00 0.00000E+00
 75.300 8.07893E-12 8.07893E-12 0.00000E+00 0.00000E+00 0.00000E+00
 75.400 3.47138E-12 3.47138E-12 0.00000E+00 0.00000E+00 0.00000E+00
 75.500 1.45723E-12 1.45723E-12 0.00000E+00 0.00000E+00 0.00000E+00
 75.600 5.97598E-13 5.97598E-13 0.00000E+00 0.00000E+00 0.00000E+00
 75.700 2.39396E-13 2.39396E-13 0.00000E+00 0.00000E+00 0.00000E+00
 75.800 9.36685E-14 9.36685E-14 0.00000E+00 0.00000E+00 0.00000E+00
 75.900 3.57993E-14 3.57993E-14 0.00000E+00 0.00000E+00 0.00000E+00
 76.000 1.33629E-14 1.33629E-14 0.00000E+00 0.00000E+00 0.00000E+00
 76.100 4.87126E-15 4.87126E-15 0.00000E+00 0.00000E+00 0.00000E+00
 76.200 1.73408E-15 1.73408E-15 0.00000E+00 0.00000E+00 0.00000E+00
 76.300 6.02717E-16 6.02717E-16 0.00000E+00 0.00000E+00 0.00000E+00
 76.400 2.04557E-16 2.04557E-16 0.00000E+00 0.00000E+00 0.00000E+00
 76.500 6.77799E-17 6.77799E-17 0.00000E+00 0.00000E+00 0.00000E+00
 76.600 2.19250E-17 2.19250E-17 0.00000E+00 0.00000E+00 0.00000E+00
 76.700 6.92302E-18 6.92302E-18 0.00000E+00 0.00000E+00 0.00000E+00
 76.800 2.13350E-18 2.13350E-18 0.00000E+00 0.00000E+00 0.00000E+00
 76.900 6.41759E-19 6.41759E-19 0.00000E+00 0.00000E+00 0.00000E+00
 77.000 1.88390E-19 1.88390E-19 0.00000E+00 0.00000E+00 0.00000E+00
 77.100 5.39655E-20 5.39655E-20 0.00000E+00 0.00000E+00 0.00000E+00
 77.200 1.50837E-20 1.50837E-20 0.00000E+00 0.00000E+00 0.00000E+00
 77.300 4.11296E-21 4.11296E-21 0.00000E+00 0.00000E+00 0.00000E+00
 77.400 1.09423E-21 1.09423E-21 0.00000E+00 0.00000E+00 0.00000E+00
 77.500 2.83981E-22 2.83981E-22 0.00000E+00 0.00000E+00 0.00000E+00
 77.600 7.18898E-23 7.18898E-23 0.00000E+00 0.00000E+00 0.00000E+00
 77.700 1.77504E-23 1.77504E-23 0.00000E+00 0.00000E+00 0.00000E+00
 77.800 4.27398E-24 4.27398E-24 0.00000E+00 0.00000E+00 0.00000E+00
 77.900 1.00371E-24 1.00371E-24 0.00000E+00 0.00000E+00 0.00000E+00
 78.000 2.29854E-25 2.29854E-25 0.00000E+00 0.00000E+00 0.00000E+00
 78.100 5.13270E-26 5.13270E-26 0.00000E+00 0.00000E+00 0.00000E+00
 78.200 1.11753E-26 1.11753E-26 0.00000E+00 0.00000E+00 0.00000E+00
 78.300 2.37200E-27 2.37200E-27 0.00000E+00 0.00000E+00 0.00000E+00
 78.400 4.90903E-28 4.90903E-28 0.00000E+00 0.00000E+00 0.00000E+00
 78.500 9.90437E-29 9.90437E-29 0.00000E+00 0.00000E+00 0.00000E+00
 78.600 1.94800E-29 1.94800E-29 0.00000E+00 0.00000E+00 0.00000E+00
 78.700 3.73475E-30 3.73475E-30 0.00000E+00 0.00000E+00 0.00000E+00
 78.800 6.97866E-31 6.97866E-31 0.00000E+00 0.00000E+00 0.00000E+00
 78.900 1.27120E-31 1.27120E-31 0.00000E+00 0.00000E+00 0.00000E+00
 79.000 2.25693E-32 2.25693E-32 0.00000E+00 0.00000E+00 0.00000E+00
 79.100 3.90544E-33 3.90544E-33 0.00000E+00 0.00000E+00 0.00000E+00
 79.200 6.58652E-34 6.58652E-34 0.00000E+00 0.00000E+00 0.00000E+00
 79.300 1.08244E-34 1.08244E-34 0.00000E+00 0.00000E+00 0.00000E+00
 79.400 1.73389E-35 1.73389E-35 0.00000E+00 0.00000E+00 0.00000E+00
 79.500 2.70668E-36 2.70668E-36 0.00000E+00 0.00000E+00 0.00000E+00
 79.600 4.11761E-37 4.11761E-37 0.00000E+00 0.00000E+00 0.00000E+00
 79.700 6.10428E-38 6.10428E-38 0.00000E+00 0.00000E+00 0.00000E+00
 79.800 8.81725E-39 8.81725E-39 0.00000E+00 0.00000E+00 0.00000E+00
 79.900 1.24126E-39 1.24126E-39 0.00000E+00 0.00000E+00 0.00000E+00
 80.000 1.70275E-40 1.70275E-40 0.00000E+00 0.00000E+00 0.00000E+00
 80.100 2.27613E-41 2.27613E-41 0.00000E+00 0.00000E+00 0.00000E+00
 80.200 2.96515E-42 2.96515E-42 0.00000E+00 0.00000E+00 0.00000E+00
 80.300 3.75548E-43 3.75548E-43 0.00000E+00 0.00000E+00 0.00000E+00
 80.400 4.62428E-44 4.62428E-44 0.00000E+00 0.00000E+00 0.00000E+00
 80.500 5.60519E-45 5.60519E-45 0.00000E+00 0.00000E+00 0.00000E+00
 80.600 0.00000E+00 0.00000E+00 0.00000E+00 0.00000E+00 0.00000E+00
 80.700 0.00000E+00 0.00000E+00 0.00000E+00 0.00000E+00 0.00000E+00
 80.800 0.00000E+00 0.00000E+00 0.00000E+00 0.00000E+00 0.00000E+00
 80.900 0.00000E+00 0.00000E+00 0.00000E+00 0.00000E+00 0.00000E+00
 81.000 0.00000E+00 0.00000E+00 0.00000E+00 0.00000E+00 0.00000E+00
 81.100 0.00000E+00 0.00000E+00 0.00000E+00 0.00000E+00 0.00000E+00
 81.200 0.00000E+00 0.00000E+00 0.00000E+00 0.00000E+00 0.00000E+00
 81.300 0.00000E+00 0.00000E+00 0.00000E+00 0.00000E+00 0.00000E+00
 81.400 0.00000E+00 0.00000E+00 0.00000E+00 0.00000E+00 0.00000E+00
 81.500 0.00000E+00 0.00000E+00 0.00000E+00 0.00000E+00 0.00000E+00
 81.600 0.00000E+00 0.00000E+00 0.00000E+00 0.00000E+00 0.00000E+00
 81.700 0.00000E+00 0.00000E+00 0.00000E+00 0.00000E+00 0.00000E+00
 81.800 0.00000E+00 0.00000E+00 0.00000E+00 0.00000E+00 0.00000E+00
 81.900 0.00000E+00 0.00000E+00 0.00000E+00 0.00000E+00 0.00000E+00
 82.000 0.00000E+00 0.00000E+00 0.00000E+00 0.00000E+00 0.00000E+00
