# n + 209Bi: alpha    DDX spectrum
# E-incident =  63.000
# 
# # energies =211
# E-out    Total       Direct    Pre-equil.  Mult. preeq  Compound
  0.700 0.00000E+00 0.00000E+00 0.00000E+00 0.00000E+00 0.00000E+00
  0.800 0.00000E+00 0.00000E+00 0.00000E+00 0.00000E+00 0.00000E+00
  0.900 0.00000E+00 0.00000E+00 0.00000E+00 0.00000E+00 0.00000E+00
  1.000 0.00000E+00 0.00000E+00 0.00000E+00 0.00000E+00 0.00000E+00
  1.100 0.00000E+00 0.00000E+00 0.00000E+00 0.00000E+00 0.00000E+00
  1.200 0.00000E+00 0.00000E+00 0.00000E+00 0.00000E+00 0.00000E+00
  1.300 0.00000E+00 0.00000E+00 0.00000E+00 0.00000E+00 0.00000E+00
  1.400 0.00000E+00 0.00000E+00 0.00000E+00 0.00000E+00 0.00000E+00
  1.500 0.00000E+00 0.00000E+00 0.00000E+00 0.00000E+00 0.00000E+00
  1.600 0.00000E+00 0.00000E+00 0.00000E+00 0.00000E+00 0.00000E+00
  1.700 0.00000E+00 0.00000E+00 0.00000E+00 0.00000E+00 0.00000E+00
  1.800 0.00000E+00 0.00000E+00 0.00000E+00 0.00000E+00 0.00000E+00
  1.900 0.00000E+00 0.00000E+00 0.00000E+00 0.00000E+00 0.00000E+00
  2.000 0.00000E+00 0.00000E+00 0.00000E+00 0.00000E+00 0.00000E+00
  2.200 0.00000E+00 0.00000E+00 0.00000E+00 0.00000E+00 0.00000E+00
  2.400 0.00000E+00 0.00000E+00 0.00000E+00 0.00000E+00 0.00000E+00
  2.600 1.40130E-45 0.00000E+00 1.40130E-45 0.00000E+00 0.00000E+00
  2.800 1.03136E-42 0.00000E+00 1.03136E-42 0.00000E+00 0.00000E+00
  3.000 4.02142E-40 0.00000E+00 4.02142E-40 0.00000E+00 0.00000E+00
  3.200 4.45515E-37 0.00000E+00 4.45515E-37 0.00000E+00 0.00000E+00
  3.400 5.67846E-35 0.00000E+00 5.67846E-35 0.00000E+00 0.00000E+00
  3.600 4.59665E-33 0.00000E+00 4.59665E-33 0.00000E+00 0.00000E+00
  3.800 2.52318E-31 0.00000E+00 2.52318E-31 0.00000E+00 0.00000E+00
  4.000 9.86715E-30 0.00000E+00 9.86715E-30 0.00000E+00 0.00000E+00
  4.500 2.75350E-26 0.00000E+00 2.75350E-26 0.00000E+00 0.00000E+00
  5.000 1.89735E-23 0.00000E+00 1.89735E-23 0.00000E+00 0.00000E+00
  5.500 4.47951E-21 0.00000E+00 4.47951E-21 0.00000E+00 0.00000E+00
  6.000 4.56447E-19 0.00000E+00 4.56447E-19 0.00000E+00 0.00000E+00
  6.500 2.37784E-17 0.00000E+00 2.37784E-17 0.00000E+00 0.00000E+00
  7.000 7.19931E-16 0.00000E+00 7.19931E-16 0.00000E+00 0.00000E+00
  7.500 1.39887E-14 0.00000E+00 1.39887E-14 0.00000E+00 0.00000E+00
  8.000 9.91531E-11 0.00000E+00 1.88776E-13 0.00000E+00 9.89644E-11
  8.500 3.08997E-09 0.00000E+00 1.88502E-12 0.00000E+00 3.08809E-09
  9.000 6.80210E-06 0.00000E+00 1.46558E-11 0.00000E+00 6.80209E-06
  9.500 2.94186E-05 0.00000E+00 9.24525E-11 0.00000E+00 2.94185E-05
 10.000 1.90039E-04 0.00000E+00 4.88894E-10 0.00000E+00 1.90039E-04
 10.500 6.78918E-04 0.00000E+00 2.22425E-09 0.00000E+00 6.78916E-04
 11.000 1.89585E-03 0.00000E+00 8.89013E-09 0.00000E+00 1.89584E-03
 11.500 3.35773E-03 0.00000E+00 3.17445E-08 0.00000E+00 3.35770E-03
 12.000 4.77934E-03 0.00000E+00 1.02721E-07 0.00000E+00 4.77924E-03
 12.500 6.07769E-03 0.00000E+00 3.04835E-07 0.00000E+00 6.07738E-03
 13.000 6.92091E-03 0.00000E+00 8.38493E-07 0.00000E+00 6.92007E-03
 13.500 8.34068E-03 0.00000E+00 2.15770E-06 0.00000E+00 8.33852E-03
 14.000 1.00755E-02 0.00000E+00 5.23779E-06 0.00000E+00 1.00702E-02
 14.500 1.22008E-02 0.00000E+00 1.20815E-05 0.00000E+00 1.21887E-02
 15.000 1.53041E-02 0.00000E+00 2.66469E-05 0.00000E+00 1.52774E-02
 15.500 2.02188E-02 0.00000E+00 5.64973E-05 0.00000E+00 2.01623E-02
 16.000 2.62248E-02 0.00000E+00 1.15636E-04 0.00000E+00 2.61092E-02
 16.500 3.24051E-02 0.00000E+00 2.29172E-04 0.00000E+00 3.21759E-02
 17.000 3.99782E-02 0.00000E+00 4.40629E-04 0.00000E+00 3.95376E-02
 17.500 5.16481E-02 0.00000E+00 8.22660E-04 0.00000E+00 5.08255E-02
 18.000 6.68956E-02 0.00000E+00 1.49067E-03 0.00000E+00 6.54050E-02
 18.500 8.52281E-02 0.00000E+00 2.61605E-03 0.00000E+00 8.26120E-02
 19.000 1.12354E-01 0.00000E+00 4.42926E-03 0.00000E+00 1.07925E-01
 19.500 1.47221E-01 0.00000E+00 1.30000E-02 0.00000E+00 1.34221E-01
 20.000 1.73940E-01 0.00000E+00 2.07848E-02 0.00000E+00 1.53155E-01
 21.000 1.79222E-01 0.00000E+00 3.41466E-02 0.00000E+00 1.45075E-01
 22.000 1.42125E-01 0.00000E+00 4.48060E-02 0.00000E+00 9.73193E-02
 23.000 1.09314E-01 0.00000E+00 5.30438E-02 0.00000E+00 5.62700E-02
 24.000 8.92692E-02 0.00000E+00 5.91290E-02 0.00000E+00 3.01402E-02
 25.000 7.97797E-02 0.00000E+00 6.33178E-02 0.00000E+00 1.64619E-02
 26.000 7.40708E-02 0.00000E+00 6.58521E-02 0.00000E+00 8.21873E-03
 27.000 7.13254E-02 0.00000E+00 6.69602E-02 0.00000E+00 4.36519E-03
 28.000 6.89666E-02 0.00000E+00 6.68544E-02 0.00000E+00 2.11218E-03
 29.000 6.67997E-02 0.00000E+00 6.57322E-02 0.00000E+00 1.06743E-03
 30.000 6.42911E-02 0.00000E+00 6.37754E-02 0.00000E+00 5.15755E-04
 31.000 6.13877E-02 0.00000E+00 6.11500E-02 0.00000E+00 2.37728E-04
 32.000 5.81258E-02 0.00000E+00 5.80060E-02 0.00000E+00 1.19839E-04
 33.000 5.45281E-02 0.00000E+00 5.44783E-02 0.00000E+00 4.98198E-05
 34.000 5.07121E-02 0.00000E+00 5.06857E-02 0.00000E+00 2.63369E-05
 35.000 4.67434E-02 0.00000E+00 4.67324E-02 0.00000E+00 1.10027E-05
 36.000 4.27211E-02 0.00000E+00 4.27157E-02 0.00000E+00 5.44141E-06
 37.000 3.87187E-02 0.00000E+00 3.87164E-02 0.00000E+00 2.32370E-06
 38.000 3.48001E-02 0.00000E+00 3.47991E-02 0.00000E+00 1.02716E-06
 39.000 3.10179E-02 0.00000E+00 3.10174E-02 0.00000E+00 4.65321E-07
 40.000 2.74149E-02 0.00000E+00 2.74147E-02 0.00000E+00 1.69046E-07
 42.000 2.08725E-02 0.00000E+00 2.08725E-02 0.00000E+00 3.02655E-08
 44.000 1.53424E-02 0.00000E+00 1.53424E-02 0.00000E+00 5.40768E-09
 46.000 1.08806E-02 0.00000E+00 1.08806E-02 0.00000E+00 9.11087E-10
 48.000 7.45277E-03 0.00000E+00 7.45277E-03 0.00000E+00 1.46430E-10
 50.000 4.90089E-03 0.00000E+00 4.90089E-03 0.00000E+00 0.00000E+00
 52.000 3.08071E-03 0.00000E+00 3.08071E-03 0.00000E+00 0.00000E+00
 54.000 1.84763E-03 0.00000E+00 1.84763E-03 0.00000E+00 0.00000E+00
 56.000 1.05346E-03 0.00000E+00 1.05346E-03 0.00000E+00 0.00000E+00
 58.000 5.66019E-04 0.00000E+00 5.66019E-04 0.00000E+00 0.00000E+00
 60.000 2.79407E-04 0.00000E+00 2.79407E-04 0.00000E+00 0.00000E+00
 62.000 1.24519E-04 0.00000E+00 1.24519E-04 0.00000E+00 0.00000E+00
 64.000 5.09241E-05 0.00000E+00 5.09241E-05 0.00000E+00 0.00000E+00
 66.000 1.85158E-05 0.00000E+00 1.85158E-05 0.00000E+00 0.00000E+00
 68.000 5.58115E-06 0.00000E+00 5.58115E-06 0.00000E+00 0.00000E+00
 70.000 1.13178E-06 0.00000E+00 1.13178E-06 0.00000E+00 0.00000E+00
 70.100 1.10166E-06 2.63615E-08 1.07530E-06 0.00000E+00 0.00000E+00
 70.200 1.05605E-06 3.72257E-08 1.01882E-06 0.00000E+00 0.00000E+00
 70.300 1.01361E-06 5.12696E-08 9.62341E-07 0.00000E+00 0.00000E+00
 70.400 9.74736E-07 6.88725E-08 9.05864E-07 0.00000E+00 0.00000E+00
 70.500 9.39638E-07 9.02522E-08 8.49386E-07 0.00000E+00 0.00000E+00
 70.600 9.08293E-07 1.15384E-07 7.92909E-07 0.00000E+00 0.00000E+00
 70.700 8.80364E-07 1.43932E-07 7.36431E-07 0.00000E+00 0.00000E+00
 70.800 8.55158E-07 1.75209E-07 6.79949E-07 0.00000E+00 0.00000E+00
 70.900 8.31622E-07 2.08151E-07 6.23472E-07 0.00000E+00 0.00000E+00
 71.000 8.08365E-07 2.41371E-07 5.66994E-07 0.00000E+00 0.00000E+00
 71.100 7.83751E-07 2.73235E-07 5.10517E-07 0.00000E+00 0.00000E+00
 71.200 7.56025E-07 3.01986E-07 4.54039E-07 0.00000E+00 0.00000E+00
 71.300 7.23468E-07 3.25911E-07 3.97557E-07 0.00000E+00 0.00000E+00
 71.400 6.84581E-07 3.43501E-07 3.41080E-07 0.00000E+00 0.00000E+00
 71.500 6.38223E-07 3.53620E-07 2.84602E-07 0.00000E+00 0.00000E+00
 71.600 5.83747E-07 3.55622E-07 2.28125E-07 0.00000E+00 0.00000E+00
 71.700 5.21065E-07 3.49418E-07 1.71647E-07 0.00000E+00 0.00000E+00
 71.800 4.50646E-07 3.35480E-07 1.15166E-07 0.00000E+00 0.00000E+00
 71.900 3.73475E-07 3.14787E-07 5.86880E-08 0.00000E+00 0.00000E+00
 72.000 2.90918E-07 2.88707E-07 2.21047E-09 0.00000E+00 0.00000E+00
 72.100 2.60949E-07 2.58849E-07 2.09994E-09 0.00000E+00 0.00000E+00
 72.200 2.28893E-07 2.26903E-07 1.98942E-09 0.00000E+00 0.00000E+00
 72.300 1.96366E-07 1.94487E-07 1.87889E-09 0.00000E+00 0.00000E+00
 72.400 1.64794E-07 1.63026E-07 1.76837E-09 0.00000E+00 0.00000E+00
 72.500 1.35311E-07 1.33653E-07 1.65785E-09 0.00000E+00 0.00000E+00
 72.600 1.08725E-07 1.07177E-07 1.54733E-09 0.00000E+00 0.00000E+00
 72.700 8.55110E-08 8.40742E-08 1.43681E-09 0.00000E+00 0.00000E+00
 72.800 6.58440E-08 6.45178E-08 1.32628E-09 0.00000E+00 0.00000E+00
 72.900 4.96546E-08 4.84389E-08 1.21575E-09 0.00000E+00 0.00000E+00
 73.000 3.66859E-08 3.55807E-08 1.10523E-09 0.00000E+00 0.00000E+00
 73.100 2.65658E-08 2.55711E-08 9.94712E-10 0.00000E+00 0.00000E+00
 73.200 1.88647E-08 1.79805E-08 8.84190E-10 0.00000E+00 0.00000E+00
 73.300 1.31431E-08 1.23695E-08 7.73660E-10 0.00000E+00 0.00000E+00
 73.400 8.98869E-09 8.32555E-09 6.63138E-10 0.00000E+00 0.00000E+00
 73.500 6.03483E-09 5.48221E-09 5.52617E-10 0.00000E+00 0.00000E+00
 73.600 3.97356E-09 3.53147E-09 4.42095E-10 0.00000E+00 0.00000E+00
 73.700 2.55685E-09 2.22528E-09 3.31573E-10 0.00000E+00 0.00000E+00
 73.800 1.59253E-09 1.37149E-09 2.21043E-10 0.00000E+00 0.00000E+00
 73.900 9.37275E-10 8.26753E-10 1.10522E-10 0.00000E+00 0.00000E+00
 74.000 4.87397E-10 4.87397E-10 0.00000E+00 0.00000E+00 0.00000E+00
 74.100 2.80978E-10 2.80978E-10 0.00000E+00 0.00000E+00 0.00000E+00
 74.200 1.58382E-10 1.58382E-10 0.00000E+00 0.00000E+00 0.00000E+00
 74.300 8.72824E-11 8.72824E-11 0.00000E+00 0.00000E+00 0.00000E+00
 74.400 4.70254E-11 4.70254E-11 0.00000E+00 0.00000E+00 0.00000E+00
 74.500 2.47667E-11 2.47667E-11 0.00000E+00 0.00000E+00 0.00000E+00
 74.600 1.27496E-11 1.27496E-11 0.00000E+00 0.00000E+00 0.00000E+00
 74.700 6.41492E-12 6.41492E-12 0.00000E+00 0.00000E+00 0.00000E+00
 74.800 3.15422E-12 3.15422E-12 0.00000E+00 0.00000E+00 0.00000E+00
 74.900 1.51572E-12 1.51572E-12 0.00000E+00 0.00000E+00 0.00000E+00
 75.000 7.11740E-13 7.11740E-13 0.00000E+00 0.00000E+00 0.00000E+00
 75.100 3.26571E-13 3.26571E-13 0.00000E+00 0.00000E+00 0.00000E+00
 75.200 1.46407E-13 1.46407E-13 0.00000E+00 0.00000E+00 0.00000E+00
 75.300 6.41253E-14 6.41253E-14 0.00000E+00 0.00000E+00 0.00000E+00
 75.400 2.74417E-14 2.74417E-14 0.00000E+00 0.00000E+00 0.00000E+00
 75.500 1.14726E-14 1.14726E-14 0.00000E+00 0.00000E+00 0.00000E+00
 75.600 4.68557E-15 4.68557E-15 0.00000E+00 0.00000E+00 0.00000E+00
 75.700 1.86936E-15 1.86936E-15 0.00000E+00 0.00000E+00 0.00000E+00
 75.800 7.28450E-16 7.28450E-16 0.00000E+00 0.00000E+00 0.00000E+00
 75.900 2.77286E-16 2.77286E-16 0.00000E+00 0.00000E+00 0.00000E+00
 76.000 1.03091E-16 1.03091E-16 0.00000E+00 0.00000E+00 0.00000E+00
 76.100 3.74336E-17 3.74336E-17 0.00000E+00 0.00000E+00 0.00000E+00
 76.200 1.32745E-17 1.32745E-17 0.00000E+00 0.00000E+00 0.00000E+00
 76.300 4.59658E-18 4.59658E-18 0.00000E+00 0.00000E+00 0.00000E+00
 76.400 1.55435E-18 1.55435E-18 0.00000E+00 0.00000E+00 0.00000E+00
 76.500 5.13217E-19 5.13217E-19 0.00000E+00 0.00000E+00 0.00000E+00
 76.600 1.65446E-19 1.65446E-19 0.00000E+00 0.00000E+00 0.00000E+00
 76.700 5.20698E-20 5.20698E-20 0.00000E+00 0.00000E+00 0.00000E+00
 76.800 1.59961E-20 1.59961E-20 0.00000E+00 0.00000E+00 0.00000E+00
 76.900 4.79718E-21 4.79718E-21 0.00000E+00 0.00000E+00 0.00000E+00
 77.000 1.40419E-21 1.40419E-21 0.00000E+00 0.00000E+00 0.00000E+00
 77.100 4.01146E-22 4.01146E-22 0.00000E+00 0.00000E+00 0.00000E+00
 77.200 1.11834E-22 1.11834E-22 0.00000E+00 0.00000E+00 0.00000E+00
 77.300 3.04205E-23 3.04205E-23 0.00000E+00 0.00000E+00 0.00000E+00
 77.400 8.07468E-24 8.07468E-24 0.00000E+00 0.00000E+00 0.00000E+00
 77.500 2.09110E-24 2.09110E-24 0.00000E+00 0.00000E+00 0.00000E+00
 77.600 5.28298E-25 5.28298E-25 0.00000E+00 0.00000E+00 0.00000E+00
 77.700 1.30198E-25 1.30198E-25 0.00000E+00 0.00000E+00 0.00000E+00
 77.800 3.12946E-26 3.12946E-26 0.00000E+00 0.00000E+00 0.00000E+00
 77.900 7.33730E-27 7.33730E-27 0.00000E+00 0.00000E+00 0.00000E+00
 78.000 1.67775E-27 1.67775E-27 0.00000E+00 0.00000E+00 0.00000E+00
 78.100 3.74123E-28 3.74123E-28 0.00000E+00 0.00000E+00 0.00000E+00
 78.200 8.13518E-29 8.13518E-29 0.00000E+00 0.00000E+00 0.00000E+00
 78.300 1.72467E-29 1.72467E-29 0.00000E+00 0.00000E+00 0.00000E+00
 78.400 3.56542E-30 3.56542E-30 0.00000E+00 0.00000E+00 0.00000E+00
 78.500 7.18629E-31 7.18629E-31 0.00000E+00 0.00000E+00 0.00000E+00
 78.600 1.41210E-31 1.41210E-31 0.00000E+00 0.00000E+00 0.00000E+00
 78.700 2.70501E-32 2.70501E-32 0.00000E+00 0.00000E+00 0.00000E+00
 78.800 5.05058E-33 5.05058E-33 0.00000E+00 0.00000E+00 0.00000E+00
 78.900 9.19339E-34 9.19339E-34 0.00000E+00 0.00000E+00 0.00000E+00
 79.000 1.63117E-34 1.63117E-34 0.00000E+00 0.00000E+00 0.00000E+00
 79.100 2.82093E-35 2.82093E-35 0.00000E+00 0.00000E+00 0.00000E+00
 79.200 4.75492E-36 4.75492E-36 0.00000E+00 0.00000E+00 0.00000E+00
 79.300 7.81047E-37 7.81047E-37 0.00000E+00 0.00000E+00 0.00000E+00
 79.400 1.25055E-37 1.25055E-37 0.00000E+00 0.00000E+00 0.00000E+00
 79.500 1.95138E-38 1.95138E-38 0.00000E+00 0.00000E+00 0.00000E+00
 79.600 2.96748E-39 2.96748E-39 0.00000E+00 0.00000E+00 0.00000E+00
 79.700 4.39777E-40 4.39777E-40 0.00000E+00 0.00000E+00 0.00000E+00
 79.800 6.35026E-41 6.35026E-41 0.00000E+00 0.00000E+00 0.00000E+00
 79.900 8.93748E-42 8.93748E-42 0.00000E+00 0.00000E+00 0.00000E+00
 80.000 1.22614E-42 1.22614E-42 0.00000E+00 0.00000E+00 0.00000E+00
 80.100 1.62551E-43 1.62551E-43 0.00000E+00 0.00000E+00 0.00000E+00
 80.200 2.10195E-44 2.10195E-44 0.00000E+00 0.00000E+00 0.00000E+00
 80.300 2.80260E-45 2.80260E-45 0.00000E+00 0.00000E+00 0.00000E+00
 80.400 0.00000E+00 0.00000E+00 0.00000E+00 0.00000E+00 0.00000E+00
 80.500 0.00000E+00 0.00000E+00 0.00000E+00 0.00000E+00 0.00000E+00
 80.600 0.00000E+00 0.00000E+00 0.00000E+00 0.00000E+00 0.00000E+00
 80.700 0.00000E+00 0.00000E+00 0.00000E+00 0.00000E+00 0.00000E+00
 80.800 0.00000E+00 0.00000E+00 0.00000E+00 0.00000E+00 0.00000E+00
 80.900 0.00000E+00 0.00000E+00 0.00000E+00 0.00000E+00 0.00000E+00
 81.000 0.00000E+00 0.00000E+00 0.00000E+00 0.00000E+00 0.00000E+00
 81.100 0.00000E+00 0.00000E+00 0.00000E+00 0.00000E+00 0.00000E+00
 81.200 0.00000E+00 0.00000E+00 0.00000E+00 0.00000E+00 0.00000E+00
 81.300 0.00000E+00 0.00000E+00 0.00000E+00 0.00000E+00 0.00000E+00
 81.400 0.00000E+00 0.00000E+00 0.00000E+00 0.00000E+00 0.00000E+00
 81.500 0.00000E+00 0.00000E+00 0.00000E+00 0.00000E+00 0.00000E+00
 81.600 0.00000E+00 0.00000E+00 0.00000E+00 0.00000E+00 0.00000E+00
 81.700 0.00000E+00 0.00000E+00 0.00000E+00 0.00000E+00 0.00000E+00
 81.800 0.00000E+00 0.00000E+00 0.00000E+00 0.00000E+00 0.00000E+00
 81.900 0.00000E+00 0.00000E+00 0.00000E+00 0.00000E+00 0.00000E+00
 82.000 0.00000E+00 0.00000E+00 0.00000E+00 0.00000E+00 0.00000E+00
