# n + 209Bi: alpha    DDX spectrum
# E-incident =  63.000
# Angle      =  70.000
# # energies =211
# E-out    Total       Direct    Pre-equil.  Mult. preeq  Compound
  0.700 0.00000E+00 0.00000E+00 0.00000E+00 0.00000E+00 0.00000E+00
  0.800 0.00000E+00 0.00000E+00 0.00000E+00 0.00000E+00 0.00000E+00
  0.900 0.00000E+00 0.00000E+00 0.00000E+00 0.00000E+00 0.00000E+00
  1.000 0.00000E+00 0.00000E+00 0.00000E+00 0.00000E+00 0.00000E+00
  1.100 0.00000E+00 0.00000E+00 0.00000E+00 0.00000E+00 0.00000E+00
  1.200 0.00000E+00 0.00000E+00 0.00000E+00 0.00000E+00 0.00000E+00
  1.300 0.00000E+00 0.00000E+00 0.00000E+00 0.00000E+00 0.00000E+00
  1.400 0.00000E+00 0.00000E+00 0.00000E+00 0.00000E+00 0.00000E+00
  1.500 0.00000E+00 0.00000E+00 0.00000E+00 0.00000E+00 0.00000E+00
  1.600 0.00000E+00 0.00000E+00 0.00000E+00 0.00000E+00 0.00000E+00
  1.700 0.00000E+00 0.00000E+00 0.00000E+00 0.00000E+00 0.00000E+00
  1.800 0.00000E+00 0.00000E+00 0.00000E+00 0.00000E+00 0.00000E+00
  1.900 0.00000E+00 0.00000E+00 0.00000E+00 0.00000E+00 0.00000E+00
  2.000 0.00000E+00 0.00000E+00 0.00000E+00 0.00000E+00 0.00000E+00
  2.200 0.00000E+00 0.00000E+00 0.00000E+00 0.00000E+00 0.00000E+00
  2.400 0.00000E+00 0.00000E+00 0.00000E+00 0.00000E+00 0.00000E+00
  2.600 0.00000E+00 0.00000E+00 0.00000E+00 0.00000E+00 0.00000E+00
  2.800 4.76441E-43 0.00000E+00 4.76441E-43 0.00000E+00 0.00000E+00
  3.000 1.86464E-40 0.00000E+00 1.86464E-40 0.00000E+00 0.00000E+00
  3.200 2.07204E-37 0.00000E+00 2.07204E-37 0.00000E+00 0.00000E+00
  3.400 2.64918E-35 0.00000E+00 2.64918E-35 0.00000E+00 0.00000E+00
  3.600 2.15140E-33 0.00000E+00 2.15140E-33 0.00000E+00 0.00000E+00
  3.800 1.18472E-31 0.00000E+00 1.18472E-31 0.00000E+00 0.00000E+00
  4.000 4.64768E-30 0.00000E+00 4.64768E-30 0.00000E+00 0.00000E+00
  4.500 1.30755E-26 0.00000E+00 1.30755E-26 0.00000E+00 0.00000E+00
  5.000 9.08429E-24 0.00000E+00 9.08429E-24 0.00000E+00 0.00000E+00
  5.500 2.16254E-21 0.00000E+00 2.16254E-21 0.00000E+00 0.00000E+00
  6.000 2.22213E-19 0.00000E+00 2.22213E-19 0.00000E+00 0.00000E+00
  6.500 1.16748E-17 0.00000E+00 1.16748E-17 0.00000E+00 0.00000E+00
  7.000 3.56519E-16 0.00000E+00 3.56519E-16 0.00000E+00 0.00000E+00
  7.500 6.98796E-15 0.00000E+00 6.98796E-15 0.00000E+00 0.00000E+00
  8.000 2.05461E-11 0.00000E+00 9.51384E-14 0.00000E+00 2.04509E-11
  8.500 9.20623E-10 0.00000E+00 9.58488E-13 0.00000E+00 9.19665E-10
  9.000 1.13887E-06 0.00000E+00 7.52005E-12 0.00000E+00 1.13886E-06
  9.500 3.11775E-05 0.00000E+00 4.78761E-11 0.00000E+00 3.11775E-05
 10.000 2.02155E-04 0.00000E+00 2.55540E-10 0.00000E+00 2.02155E-04
 10.500 6.54199E-04 0.00000E+00 1.17372E-09 0.00000E+00 6.54198E-04
 11.000 1.41695E-03 0.00000E+00 4.73646E-09 0.00000E+00 1.41694E-03
 11.500 2.51932E-03 0.00000E+00 1.70793E-08 0.00000E+00 2.51930E-03
 12.000 3.40255E-03 0.00000E+00 5.58166E-08 0.00000E+00 3.40250E-03
 12.500 4.32132E-03 0.00000E+00 1.67325E-07 0.00000E+00 4.32115E-03
 13.000 5.29536E-03 0.00000E+00 4.65014E-07 0.00000E+00 5.29490E-03
 13.500 7.12294E-03 0.00000E+00 1.20926E-06 0.00000E+00 7.12173E-03
 14.000 9.48181E-03 0.00000E+00 2.96693E-06 0.00000E+00 9.47885E-03
 14.500 1.27094E-02 0.00000E+00 6.91823E-06 0.00000E+00 1.27025E-02
 15.000 1.73291E-02 0.00000E+00 1.54291E-05 0.00000E+00 1.73137E-02
 15.500 2.33197E-02 0.00000E+00 3.30843E-05 0.00000E+00 2.32867E-02
 16.000 3.06806E-02 0.00000E+00 6.84998E-05 0.00000E+00 3.06121E-02
 16.500 3.91649E-02 0.00000E+00 1.37367E-04 0.00000E+00 3.90276E-02
 17.000 4.90295E-02 0.00000E+00 2.67293E-04 0.00000E+00 4.87622E-02
 17.500 6.06736E-02 0.00000E+00 5.05197E-04 0.00000E+00 6.01684E-02
 18.000 7.22466E-02 0.00000E+00 9.26955E-04 0.00000E+00 7.13196E-02
 18.500 8.28428E-02 0.00000E+00 1.64773E-03 0.00000E+00 8.11951E-02
 19.000 9.31643E-02 0.00000E+00 2.82646E-03 0.00000E+00 9.03378E-02
 19.500 1.01156E-01 0.00000E+00 4.65235E-03 0.00000E+00 9.65032E-02
 20.000 1.04832E-01 0.00000E+00 7.30225E-03 0.00000E+00 9.75297E-02
 21.000 1.02682E-01 0.00000E+00 1.53245E-02 0.00000E+00 8.73575E-02
 22.000 9.09117E-02 0.00000E+00 2.60943E-02 0.00000E+00 6.48174E-02
 23.000 7.78810E-02 0.00000E+00 3.76916E-02 0.00000E+00 4.01894E-02
 24.000 7.07351E-02 0.00000E+00 4.86437E-02 0.00000E+00 2.20914E-02
 25.000 6.91607E-02 0.00000E+00 5.82628E-02 0.00000E+00 1.08979E-02
 26.000 7.15011E-02 0.00000E+00 6.63429E-02 0.00000E+00 5.15824E-03
 27.000 7.52066E-02 0.00000E+00 7.28923E-02 0.00000E+00 2.31428E-03
 28.000 7.90220E-02 0.00000E+00 7.80043E-02 0.00000E+00 1.01773E-03
 29.000 8.22388E-02 0.00000E+00 8.17950E-02 0.00000E+00 4.43741E-04
 30.000 8.45709E-02 0.00000E+00 8.43863E-02 0.00000E+00 1.84549E-04
 31.000 8.59716E-02 0.00000E+00 8.58924E-02 0.00000E+00 7.92761E-05
 32.000 8.64561E-02 0.00000E+00 8.64239E-02 0.00000E+00 3.22308E-05
 33.000 8.60995E-02 0.00000E+00 8.60859E-02 0.00000E+00 1.35969E-05
 34.000 8.49786E-02 0.00000E+00 8.49732E-02 0.00000E+00 5.44385E-06
 35.000 8.31785E-02 0.00000E+00 8.31762E-02 0.00000E+00 2.28822E-06
 36.000 8.07748E-02 0.00000E+00 8.07739E-02 0.00000E+00 9.18780E-07
 37.000 7.78381E-02 0.00000E+00 7.78378E-02 0.00000E+00 3.81963E-07
 38.000 7.44328E-02 0.00000E+00 7.44327E-02 0.00000E+00 1.49806E-07
 39.000 7.06135E-02 0.00000E+00 7.06134E-02 0.00000E+00 6.28312E-08
 40.000 6.65733E-02 0.00000E+00 6.65732E-02 0.00000E+00 2.16006E-08
 42.000 5.81704E-02 0.00000E+00 5.81704E-02 0.00000E+00 3.53775E-09
 44.000 4.96921E-02 0.00000E+00 4.96921E-02 0.00000E+00 5.31310E-10
 46.000 4.14846E-02 0.00000E+00 4.14846E-02 0.00000E+00 0.00000E+00
 48.000 3.38109E-02 0.00000E+00 3.38109E-02 0.00000E+00 0.00000E+00
 50.000 2.68587E-02 0.00000E+00 2.68587E-02 0.00000E+00 0.00000E+00
 52.000 2.07474E-02 0.00000E+00 2.07474E-02 0.00000E+00 0.00000E+00
 54.000 1.55354E-02 0.00000E+00 1.55354E-02 0.00000E+00 0.00000E+00
 56.000 1.12278E-02 0.00000E+00 1.12278E-02 0.00000E+00 0.00000E+00
 58.000 7.78578E-03 0.00000E+00 7.78578E-03 0.00000E+00 0.00000E+00
 60.000 5.13646E-03 0.00000E+00 5.13646E-03 0.00000E+00 0.00000E+00
 62.000 3.18320E-03 0.00000E+00 3.18320E-03 0.00000E+00 0.00000E+00
 64.000 1.81564E-03 0.00000E+00 1.81564E-03 0.00000E+00 0.00000E+00
 66.000 9.19205E-04 0.00000E+00 9.19205E-04 0.00000E+00 0.00000E+00
 68.000 3.82944E-04 0.00000E+00 3.82944E-04 0.00000E+00 0.00000E+00
 70.000 1.05774E-04 0.00000E+00 1.05774E-04 0.00000E+00 0.00000E+00
 70.100 1.03560E-04 3.05683E-06 1.00503E-04 0.00000E+00 0.00000E+00
 70.200 9.95496E-05 4.31729E-06 9.52323E-05 0.00000E+00 0.00000E+00
 70.300 9.59081E-05 5.94700E-06 8.99611E-05 0.00000E+00 0.00000E+00
 70.400 9.26806E-05 7.99019E-06 8.46904E-05 0.00000E+00 0.00000E+00
 70.500 8.98921E-05 1.04724E-05 7.94197E-05 0.00000E+00 0.00000E+00
 70.600 8.75401E-05 1.33911E-05 7.41490E-05 0.00000E+00 0.00000E+00
 70.700 8.55860E-05 1.67078E-05 6.88782E-05 0.00000E+00 0.00000E+00
 70.800 8.39500E-05 2.03428E-05 6.36071E-05 0.00000E+00 0.00000E+00
 70.900 8.25097E-05 2.41733E-05 5.83364E-05 0.00000E+00 0.00000E+00
 71.000 8.11042E-05 2.80385E-05 5.30657E-05 0.00000E+00 0.00000E+00
 71.100 7.95436E-05 3.17487E-05 4.77950E-05 0.00000E+00 0.00000E+00
 71.200 7.76243E-05 3.51001E-05 4.25242E-05 0.00000E+00 0.00000E+00
 71.300 7.51467E-05 3.78935E-05 3.72531E-05 0.00000E+00 0.00000E+00
 71.400 7.19357E-05 3.99533E-05 3.19824E-05 0.00000E+00 0.00000E+00
 71.500 6.78586E-05 4.11469E-05 2.67117E-05 0.00000E+00 0.00000E+00
 71.600 6.28391E-05 4.13982E-05 2.14409E-05 0.00000E+00 0.00000E+00
 71.700 5.68661E-05 4.06958E-05 1.61702E-05 0.00000E+00 0.00000E+00
 71.800 4.99927E-05 3.90936E-05 1.08991E-05 0.00000E+00 0.00000E+00
 71.900 4.23325E-05 3.67041E-05 5.62838E-06 0.00000E+00 0.00000E+00
 72.000 3.40429E-05 3.36853E-05 3.57657E-07 0.00000E+00 0.00000E+00
 72.100 3.05631E-05 3.02234E-05 3.39775E-07 0.00000E+00 0.00000E+00
 72.200 2.68364E-05 2.65145E-05 3.21892E-07 0.00000E+00 0.00000E+00
 72.300 2.30504E-05 2.27464E-05 3.04008E-07 0.00000E+00 0.00000E+00
 72.400 1.93712E-05 1.90851E-05 2.86126E-07 0.00000E+00 0.00000E+00
 72.500 1.59312E-05 1.56630E-05 2.68243E-07 0.00000E+00 0.00000E+00
 72.600 1.28250E-05 1.25746E-05 2.50360E-07 0.00000E+00 0.00000E+00
 72.700 1.01088E-05 9.87635E-06 2.32478E-07 0.00000E+00 0.00000E+00
 72.800 7.80388E-06 7.58929E-06 2.14594E-07 0.00000E+00 0.00000E+00
 72.900 5.90297E-06 5.70626E-06 1.96711E-07 0.00000E+00 0.00000E+00
 73.000 4.37698E-06 4.19815E-06 1.78829E-07 0.00000E+00 0.00000E+00
 73.100 3.18320E-06 3.02225E-06 1.60946E-07 0.00000E+00 0.00000E+00
 73.200 2.27205E-06 2.12899E-06 1.43063E-07 0.00000E+00 0.00000E+00
 73.300 1.59265E-06 1.46747E-06 1.25180E-07 0.00000E+00 0.00000E+00
 73.400 1.09706E-06 9.89764E-07 1.07297E-07 0.00000E+00 0.00000E+00
 73.500 7.42591E-07 6.53177E-07 8.94143E-08 0.00000E+00 0.00000E+00
 73.600 4.93271E-07 4.21740E-07 7.15317E-08 0.00000E+00 0.00000E+00
 73.700 3.20055E-07 2.66406E-07 5.36491E-08 0.00000E+00 0.00000E+00
 73.800 2.00384E-07 1.64619E-07 3.57652E-08 0.00000E+00 0.00000E+00
 73.900 1.17388E-07 9.95059E-08 1.78826E-08 0.00000E+00 0.00000E+00
 74.000 5.88298E-08 5.88298E-08 0.00000E+00 0.00000E+00 0.00000E+00
 74.100 3.40162E-08 3.40162E-08 0.00000E+00 0.00000E+00 0.00000E+00
 74.200 1.92342E-08 1.92342E-08 0.00000E+00 0.00000E+00 0.00000E+00
 74.300 1.06341E-08 1.06341E-08 0.00000E+00 0.00000E+00 0.00000E+00
 74.400 5.74870E-09 5.74870E-09 0.00000E+00 0.00000E+00 0.00000E+00
 74.500 3.03821E-09 3.03821E-09 0.00000E+00 0.00000E+00 0.00000E+00
 74.600 1.56968E-09 1.56968E-09 0.00000E+00 0.00000E+00 0.00000E+00
 74.700 7.92706E-10 7.92706E-10 0.00000E+00 0.00000E+00 0.00000E+00
 74.800 3.91260E-10 3.91260E-10 0.00000E+00 0.00000E+00 0.00000E+00
 74.900 1.88749E-10 1.88749E-10 0.00000E+00 0.00000E+00 0.00000E+00
 75.000 8.89852E-11 8.89852E-11 0.00000E+00 0.00000E+00 0.00000E+00
 75.100 4.09954E-11 4.09954E-11 0.00000E+00 0.00000E+00 0.00000E+00
 75.200 1.84548E-11 1.84548E-11 0.00000E+00 0.00000E+00 0.00000E+00
 75.300 8.11685E-12 8.11685E-12 0.00000E+00 0.00000E+00 0.00000E+00
 75.400 3.48816E-12 3.48816E-12 0.00000E+00 0.00000E+00 0.00000E+00
 75.500 1.46448E-12 1.46448E-12 0.00000E+00 0.00000E+00 0.00000E+00
 75.600 6.00656E-13 6.00656E-13 0.00000E+00 0.00000E+00 0.00000E+00
 75.700 2.40655E-13 2.40655E-13 0.00000E+00 0.00000E+00 0.00000E+00
 75.800 9.41746E-14 9.41746E-14 0.00000E+00 0.00000E+00 0.00000E+00
 75.900 3.59978E-14 3.59978E-14 0.00000E+00 0.00000E+00 0.00000E+00
 76.000 1.34389E-14 1.34389E-14 0.00000E+00 0.00000E+00 0.00000E+00
 76.100 4.89970E-15 4.89970E-15 0.00000E+00 0.00000E+00 0.00000E+00
 76.200 1.74445E-15 1.74445E-15 0.00000E+00 0.00000E+00 0.00000E+00
 76.300 6.06411E-16 6.06411E-16 0.00000E+00 0.00000E+00 0.00000E+00
 76.400 2.05840E-16 2.05840E-16 0.00000E+00 0.00000E+00 0.00000E+00
 76.500 6.82152E-17 6.82152E-17 0.00000E+00 0.00000E+00 0.00000E+00
 76.600 2.20691E-17 2.20691E-17 0.00000E+00 0.00000E+00 0.00000E+00
 76.700 6.96953E-18 6.96953E-18 0.00000E+00 0.00000E+00 0.00000E+00
 76.800 2.14815E-18 2.14815E-18 0.00000E+00 0.00000E+00 0.00000E+00
 76.900 6.46261E-19 6.46261E-19 0.00000E+00 0.00000E+00 0.00000E+00
 77.000 1.89740E-19 1.89740E-19 0.00000E+00 0.00000E+00 0.00000E+00
 77.100 5.43601E-20 5.43601E-20 0.00000E+00 0.00000E+00 0.00000E+00
 77.200 1.51963E-20 1.51963E-20 0.00000E+00 0.00000E+00 0.00000E+00
 77.300 4.14428E-21 4.14428E-21 0.00000E+00 0.00000E+00 0.00000E+00
 77.400 1.10272E-21 1.10272E-21 0.00000E+00 0.00000E+00 0.00000E+00
 77.500 2.86229E-22 2.86229E-22 0.00000E+00 0.00000E+00 0.00000E+00
 77.600 7.24696E-23 7.24696E-23 0.00000E+00 0.00000E+00 0.00000E+00
 77.700 1.78962E-23 1.78962E-23 0.00000E+00 0.00000E+00 0.00000E+00
 77.800 4.30975E-24 4.30975E-24 0.00000E+00 0.00000E+00 0.00000E+00
 77.900 1.01226E-24 1.01226E-24 0.00000E+00 0.00000E+00 0.00000E+00
 78.000 2.31848E-25 2.31848E-25 0.00000E+00 0.00000E+00 0.00000E+00
 78.100 5.17801E-26 5.17801E-26 0.00000E+00 0.00000E+00 0.00000E+00
 78.200 1.12756E-26 1.12756E-26 0.00000E+00 0.00000E+00 0.00000E+00
 78.300 2.39367E-27 2.39367E-27 0.00000E+00 0.00000E+00 0.00000E+00
 78.400 4.95463E-28 4.95463E-28 0.00000E+00 0.00000E+00 0.00000E+00
 78.500 9.99790E-29 9.99790E-29 0.00000E+00 0.00000E+00 0.00000E+00
 78.600 1.96669E-29 1.96669E-29 0.00000E+00 0.00000E+00 0.00000E+00
 78.700 3.77117E-30 3.77117E-30 0.00000E+00 0.00000E+00 0.00000E+00
 78.800 7.04781E-31 7.04781E-31 0.00000E+00 0.00000E+00 0.00000E+00
 78.900 1.28400E-31 1.28400E-31 0.00000E+00 0.00000E+00 0.00000E+00
 79.000 2.28001E-32 2.28001E-32 0.00000E+00 0.00000E+00 0.00000E+00
 79.100 3.94598E-33 3.94598E-33 0.00000E+00 0.00000E+00 0.00000E+00
 79.200 6.65593E-34 6.65593E-34 0.00000E+00 0.00000E+00 0.00000E+00
 79.300 1.09402E-34 1.09402E-34 0.00000E+00 0.00000E+00 0.00000E+00
 79.400 1.75271E-35 1.75271E-35 0.00000E+00 0.00000E+00 0.00000E+00
 79.500 2.73650E-36 2.73650E-36 0.00000E+00 0.00000E+00 0.00000E+00
 79.600 4.16362E-37 4.16362E-37 0.00000E+00 0.00000E+00 0.00000E+00
 79.700 6.17347E-38 6.17347E-38 0.00000E+00 0.00000E+00 0.00000E+00
 79.800 8.91859E-39 8.91859E-39 0.00000E+00 0.00000E+00 0.00000E+00
 79.900 1.25572E-39 1.25572E-39 0.00000E+00 0.00000E+00 0.00000E+00
 80.000 1.72285E-40 1.72285E-40 0.00000E+00 0.00000E+00 0.00000E+00
 80.100 2.30331E-41 2.30331E-41 0.00000E+00 0.00000E+00 0.00000E+00
 80.200 3.00158E-42 3.00158E-42 0.00000E+00 0.00000E+00 0.00000E+00
 80.300 3.79752E-43 3.79752E-43 0.00000E+00 0.00000E+00 0.00000E+00
 80.400 4.62428E-44 4.62428E-44 0.00000E+00 0.00000E+00 0.00000E+00
 80.500 5.60519E-45 5.60519E-45 0.00000E+00 0.00000E+00 0.00000E+00
 80.600 0.00000E+00 0.00000E+00 0.00000E+00 0.00000E+00 0.00000E+00
 80.700 0.00000E+00 0.00000E+00 0.00000E+00 0.00000E+00 0.00000E+00
 80.800 0.00000E+00 0.00000E+00 0.00000E+00 0.00000E+00 0.00000E+00
 80.900 0.00000E+00 0.00000E+00 0.00000E+00 0.00000E+00 0.00000E+00
 81.000 0.00000E+00 0.00000E+00 0.00000E+00 0.00000E+00 0.00000E+00
 81.100 0.00000E+00 0.00000E+00 0.00000E+00 0.00000E+00 0.00000E+00
 81.200 0.00000E+00 0.00000E+00 0.00000E+00 0.00000E+00 0.00000E+00
 81.300 0.00000E+00 0.00000E+00 0.00000E+00 0.00000E+00 0.00000E+00
 81.400 0.00000E+00 0.00000E+00 0.00000E+00 0.00000E+00 0.00000E+00
 81.500 0.00000E+00 0.00000E+00 0.00000E+00 0.00000E+00 0.00000E+00
 81.600 0.00000E+00 0.00000E+00 0.00000E+00 0.00000E+00 0.00000E+00
 81.700 0.00000E+00 0.00000E+00 0.00000E+00 0.00000E+00 0.00000E+00
 81.800 0.00000E+00 0.00000E+00 0.00000E+00 0.00000E+00 0.00000E+00
 81.900 0.00000E+00 0.00000E+00 0.00000E+00 0.00000E+00 0.00000E+00
 82.000 0.00000E+00 0.00000E+00 0.00000E+00 0.00000E+00 0.00000E+00
