# n + 209Bi: deuteron DDX spectrum
# E-incident =  63.000
# 
# # energies =227
# E-out    Total       Direct    Pre-equil.  Mult. preeq  Compound
  0.400 0.00000E+00 0.00000E+00 0.00000E+00 0.00000E+00 0.00000E+00
  0.500 0.00000E+00 0.00000E+00 0.00000E+00 0.00000E+00 0.00000E+00
  0.600 0.00000E+00 0.00000E+00 0.00000E+00 0.00000E+00 0.00000E+00
  0.700 1.40130E-44 0.00000E+00 1.40130E-44 0.00000E+00 0.00000E+00
  0.800 8.78754E-41 0.00000E+00 8.78754E-41 0.00000E+00 0.00000E+00
  0.900 1.22295E-37 0.00000E+00 1.22295E-37 0.00000E+00 0.00000E+00
  1.000 2.97337E-34 0.00000E+00 2.97337E-34 0.00000E+00 0.00000E+00
  1.100 5.69783E-32 0.00000E+00 5.69783E-32 0.00000E+00 0.00000E+00
  1.200 5.52550E-30 0.00000E+00 5.52550E-30 0.00000E+00 0.00000E+00
  1.300 3.10001E-28 0.00000E+00 3.10001E-28 0.00000E+00 0.00000E+00
  1.400 1.11115E-26 0.00000E+00 1.11115E-26 0.00000E+00 0.00000E+00
  1.500 2.74692E-25 0.00000E+00 2.74692E-25 0.00000E+00 0.00000E+00
  1.600 4.96649E-24 0.00000E+00 4.96649E-24 0.00000E+00 0.00000E+00
  1.700 6.88106E-23 0.00000E+00 6.88106E-23 0.00000E+00 0.00000E+00
  1.800 7.58431E-22 0.00000E+00 7.58431E-22 0.00000E+00 0.00000E+00
  1.900 6.85618E-21 0.00000E+00 6.85618E-21 0.00000E+00 0.00000E+00
  2.000 5.21108E-20 0.00000E+00 5.21108E-20 0.00000E+00 0.00000E+00
  2.200 1.94037E-18 0.00000E+00 1.94037E-18 0.00000E+00 0.00000E+00
  2.400 4.45989E-17 0.00000E+00 4.45989E-17 0.00000E+00 0.00000E+00
  2.600 6.95536E-16 0.00000E+00 6.95536E-16 0.00000E+00 0.00000E+00
  2.800 7.90106E-15 0.00000E+00 7.90106E-15 0.00000E+00 0.00000E+00
  3.000 4.88393E-12 0.00000E+00 6.89862E-14 0.00000E+00 4.81495E-12
  3.200 1.15362E-10 0.00000E+00 4.83025E-13 0.00000E+00 1.14879E-10
  3.400 1.01568E-09 0.00000E+00 2.80371E-12 0.00000E+00 1.01287E-09
  3.600 1.50262E-08 0.00000E+00 1.38586E-11 0.00000E+00 1.50124E-08
  3.800 1.74451E-07 0.00000E+00 5.96387E-11 0.00000E+00 1.74391E-07
  4.000 2.95216E-07 0.00000E+00 2.27472E-10 0.00000E+00 2.94989E-07
  4.500 7.58486E-07 0.00000E+00 4.18402E-09 0.00000E+00 7.54302E-07
  5.000 4.82752E-06 0.00000E+00 4.71929E-08 0.00000E+00 4.78033E-06
  5.500 2.85158E-05 0.00000E+00 3.67768E-07 0.00000E+00 2.81480E-05
  6.000 6.44856E-05 0.00000E+00 2.14994E-06 0.00000E+00 6.23357E-05
  6.500 2.17002E-04 0.00000E+00 9.99484E-06 0.00000E+00 2.07007E-04
  7.000 5.80397E-04 0.00000E+00 3.85180E-05 0.00000E+00 5.41879E-04
  7.500 1.08149E-03 0.00000E+00 1.26660E-04 0.00000E+00 9.54827E-04
  8.000 2.23286E-03 0.00000E+00 3.61962E-04 0.00000E+00 1.87090E-03
  8.500 3.98434E-03 0.00000E+00 9.06471E-04 0.00000E+00 3.07787E-03
  9.000 6.22152E-03 0.00000E+00 1.98946E-03 0.00000E+00 4.23206E-03
  9.500 9.34940E-03 0.00000E+00 3.81961E-03 0.00000E+00 5.52979E-03
 10.000 1.27426E-02 0.00000E+00 6.45681E-03 0.00000E+00 6.28578E-03
 10.500 1.64644E-02 0.00000E+00 9.79305E-03 0.00000E+00 6.67135E-03
 11.000 2.02213E-02 0.00000E+00 1.36523E-02 0.00000E+00 6.56907E-03
 11.500 2.37929E-02 0.00000E+00 1.78584E-02 0.00000E+00 5.93452E-03
 12.000 2.75472E-02 0.00000E+00 2.22378E-02 0.00000E+00 5.30942E-03
 12.500 3.09518E-02 0.00000E+00 2.66260E-02 0.00000E+00 4.32585E-03
 13.000 3.43793E-02 0.00000E+00 3.08716E-02 0.00000E+00 3.50767E-03
 13.500 3.77049E-02 0.00000E+00 3.48405E-02 0.00000E+00 2.86448E-03
 14.000 4.05244E-02 0.00000E+00 3.84404E-02 0.00000E+00 2.08398E-03
 14.500 4.32757E-02 0.00000E+00 4.16390E-02 0.00000E+00 1.63668E-03
 15.000 4.56781E-02 0.00000E+00 4.44503E-02 0.00000E+00 1.22782E-03
 15.500 4.77571E-02 0.00000E+00 4.68990E-02 0.00000E+00 8.58170E-04
 16.000 4.96743E-02 0.00000E+00 4.90106E-02 0.00000E+00 6.63651E-04
 16.500 5.12816E-02 0.00000E+00 5.08179E-02 0.00000E+00 4.63677E-04
 17.000 5.26645E-02 0.00000E+00 5.23367E-02 0.00000E+00 3.27799E-04
 17.500 5.38508E-02 0.00000E+00 5.36044E-02 0.00000E+00 2.46384E-04
 18.000 5.47928E-02 0.00000E+00 5.46283E-02 0.00000E+00 1.64493E-04
 18.500 5.55427E-02 0.00000E+00 5.54243E-02 0.00000E+00 1.18369E-04
 19.000 5.60820E-02 0.00000E+00 5.59964E-02 0.00000E+00 8.55744E-05
 19.500 5.64171E-02 0.00000E+00 5.63610E-02 0.00000E+00 5.61900E-05
 20.000 5.65670E-02 0.00000E+00 5.65264E-02 0.00000E+00 4.05343E-05
 21.000 5.63602E-02 0.00000E+00 5.63415E-02 0.00000E+00 1.87090E-05
 22.000 5.55878E-02 0.00000E+00 5.55789E-02 0.00000E+00 8.85838E-06
 23.000 5.43442E-02 0.00000E+00 5.43400E-02 0.00000E+00 4.23438E-06
 24.000 5.26933E-02 0.00000E+00 5.26914E-02 0.00000E+00 1.86493E-06
 25.000 5.06906E-02 0.00000E+00 5.06898E-02 0.00000E+00 7.80258E-07
 26.000 4.84004E-02 0.00000E+00 4.84000E-02 0.00000E+00 3.84363E-07
 27.000 4.58843E-02 0.00000E+00 4.58842E-02 0.00000E+00 1.63960E-07
 28.000 4.32248E-02 0.00000E+00 4.32248E-02 0.00000E+00 6.47917E-08
 29.000 4.05186E-02 0.00000E+00 4.05186E-02 0.00000E+00 3.02663E-08
 30.000 3.77961E-02 0.00000E+00 3.77961E-02 0.00000E+00 1.27443E-08
 31.000 3.50877E-02 0.00000E+00 3.50877E-02 0.00000E+00 4.83654E-09
 32.000 3.24185E-02 0.00000E+00 3.24185E-02 0.00000E+00 1.99163E-09
 33.000 2.98134E-02 0.00000E+00 2.98134E-02 0.00000E+00 8.51112E-10
 34.000 2.72920E-02 0.00000E+00 2.72920E-02 0.00000E+00 3.17000E-10
 35.000 2.48738E-02 0.00000E+00 2.48738E-02 0.00000E+00 0.00000E+00
 36.000 2.25699E-02 0.00000E+00 2.25699E-02 0.00000E+00 0.00000E+00
 37.000 2.03899E-02 0.00000E+00 2.03899E-02 0.00000E+00 0.00000E+00
 38.000 1.83363E-02 0.00000E+00 1.83363E-02 0.00000E+00 0.00000E+00
 39.000 1.64150E-02 0.00000E+00 1.64150E-02 0.00000E+00 0.00000E+00
 40.000 1.46286E-02 0.00000E+00 1.46286E-02 0.00000E+00 0.00000E+00
 42.000 1.14620E-02 0.00000E+00 1.14620E-02 0.00000E+00 0.00000E+00
 44.000 8.82371E-03 0.00000E+00 8.82371E-03 0.00000E+00 0.00000E+00
 46.000 6.67509E-03 0.00000E+00 6.67509E-03 0.00000E+00 0.00000E+00
 48.000 4.96501E-03 0.00000E+00 4.96501E-03 0.00000E+00 0.00000E+00
 50.000 3.63379E-03 0.00000E+00 3.63379E-03 0.00000E+00 0.00000E+00
 52.000 2.61933E-03 0.00000E+00 2.61933E-03 0.00000E+00 0.00000E+00
 54.000 1.86148E-03 0.00000E+00 1.86148E-03 0.00000E+00 0.00000E+00
 56.000 1.30550E-03 0.00000E+00 1.30550E-03 0.00000E+00 0.00000E+00
 56.100 1.25211E-03 7.50622E-06 1.24460E-03 0.00000E+00 0.00000E+00
 56.200 1.19749E-03 1.37842E-05 1.18371E-03 0.00000E+00 0.00000E+00
 56.300 1.14699E-03 2.41718E-05 1.12282E-03 0.00000E+00 0.00000E+00
 56.400 1.10244E-03 4.05120E-05 1.06192E-03 0.00000E+00 0.00000E+00
 56.500 1.06598E-03 6.49518E-05 1.00103E-03 0.00000E+00 0.00000E+00
 56.600 1.03987E-03 9.97255E-05 9.40141E-04 0.00000E+00 0.00000E+00
 56.700 1.02606E-03 1.46816E-04 8.79247E-04 0.00000E+00 0.00000E+00
 56.800 1.02589E-03 2.07540E-04 8.18355E-04 0.00000E+00 0.00000E+00
 56.900 1.03964E-03 2.82184E-04 7.57461E-04 0.00000E+00 0.00000E+00
 57.000 1.06633E-03 3.69759E-04 6.96569E-04 0.00000E+00 0.00000E+00
 57.100 1.10373E-03 4.68052E-04 6.35677E-04 0.00000E+00 0.00000E+00
 57.200 1.14876E-03 5.73975E-04 5.74783E-04 0.00000E+00 0.00000E+00
 57.300 1.19809E-03 6.84197E-04 5.13891E-04 0.00000E+00 0.00000E+00
 57.400 1.24895E-03 7.95953E-04 4.52996E-04 0.00000E+00 0.00000E+00
 57.500 1.29980E-03 9.07697E-04 3.92105E-04 0.00000E+00 0.00000E+00
 57.600 1.35064E-03 1.01943E-03 3.31213E-04 0.00000E+00 0.00000E+00
 57.700 1.40269E-03 1.13237E-03 2.70318E-04 0.00000E+00 0.00000E+00
 57.800 1.45731E-03 1.24789E-03 2.09427E-04 0.00000E+00 0.00000E+00
 57.900 1.51452E-03 1.36599E-03 1.48532E-04 0.00000E+00 0.00000E+00
 58.000 1.57121E-03 1.48357E-03 8.76405E-05 0.00000E+00 0.00000E+00
 58.100 1.67664E-03 1.59338E-03 8.32585E-05 0.00000E+00 0.00000E+00
 58.200 1.76296E-03 1.68409E-03 7.88764E-05 0.00000E+00 0.00000E+00
 58.300 1.81636E-03 1.74187E-03 7.44945E-05 0.00000E+00 0.00000E+00
 58.400 1.82351E-03 1.75339E-03 7.01123E-05 0.00000E+00 0.00000E+00
 58.500 1.77501E-03 1.70928E-03 6.57304E-05 0.00000E+00 0.00000E+00
 58.600 1.66839E-03 1.60705E-03 6.13484E-05 0.00000E+00 0.00000E+00
 58.700 1.50940E-03 1.45243E-03 5.69663E-05 0.00000E+00 0.00000E+00
 58.800 1.31128E-03 1.25870E-03 5.25843E-05 0.00000E+00 0.00000E+00
 58.900 1.09214E-03 1.04394E-03 4.82022E-05 0.00000E+00 0.00000E+00
 59.000 8.71306E-04 8.27485E-04 4.38203E-05 0.00000E+00 0.00000E+00
 59.100 6.65706E-04 6.26268E-04 3.94383E-05 0.00000E+00 0.00000E+00
 59.200 4.87404E-04 4.52347E-04 3.50562E-05 0.00000E+00 0.00000E+00
 59.300 3.42638E-04 3.11964E-04 3.06742E-05 0.00000E+00 0.00000E+00
 59.400 2.32310E-04 2.06018E-04 2.62921E-05 0.00000E+00 0.00000E+00
 59.500 1.53553E-04 1.31643E-04 2.19101E-05 0.00000E+00 0.00000E+00
 59.600 1.01609E-04 8.40806E-05 1.75282E-05 0.00000E+00 0.00000E+00
 59.700 7.16055E-05 5.84595E-05 1.31460E-05 0.00000E+00 0.00000E+00
 59.800 5.98230E-05 5.10589E-05 8.76408E-06 0.00000E+00 0.00000E+00
 59.900 6.43609E-05 5.99790E-05 4.38196E-06 0.00000E+00 0.00000E+00
 60.000 8.52412E-05 8.52412E-05 0.00000E+00 0.00000E+00 0.00000E+00
 60.100 1.28394E-04 1.28394E-04 0.00000E+00 0.00000E+00 0.00000E+00
 60.200 1.91714E-04 1.91714E-04 0.00000E+00 0.00000E+00 0.00000E+00
 60.300 2.77092E-04 2.77092E-04 0.00000E+00 0.00000E+00 0.00000E+00
 60.400 3.84792E-04 3.84792E-04 0.00000E+00 0.00000E+00 0.00000E+00
 60.500 5.12245E-04 5.12245E-04 0.00000E+00 0.00000E+00 0.00000E+00
 60.600 6.53279E-04 6.53279E-04 0.00000E+00 0.00000E+00 0.00000E+00
 60.700 7.98011E-04 7.98011E-04 0.00000E+00 0.00000E+00 0.00000E+00
 60.800 9.33633E-04 9.33633E-04 0.00000E+00 0.00000E+00 0.00000E+00
 60.900 1.04616E-03 1.04616E-03 0.00000E+00 0.00000E+00 0.00000E+00
 61.000 1.12273E-03 1.12273E-03 0.00000E+00 0.00000E+00 0.00000E+00
 61.100 1.15399E-03 1.15399E-03 0.00000E+00 0.00000E+00 0.00000E+00
 61.200 1.13600E-03 1.13600E-03 0.00000E+00 0.00000E+00 0.00000E+00
 61.300 1.07105E-03 1.07105E-03 0.00000E+00 0.00000E+00 0.00000E+00
 61.400 9.67137E-04 9.67137E-04 0.00000E+00 0.00000E+00 0.00000E+00
 61.500 8.36413E-04 8.36413E-04 0.00000E+00 0.00000E+00 0.00000E+00
 61.600 6.92796E-04 6.92796E-04 0.00000E+00 0.00000E+00 0.00000E+00
 61.700 5.49589E-04 5.49589E-04 0.00000E+00 0.00000E+00 0.00000E+00
 61.800 4.17567E-04 4.17567E-04 0.00000E+00 0.00000E+00 0.00000E+00
 61.900 3.03851E-04 3.03851E-04 0.00000E+00 0.00000E+00 0.00000E+00
 62.000 2.11764E-04 2.11764E-04 0.00000E+00 0.00000E+00 0.00000E+00
 62.100 1.41349E-04 1.41349E-04 0.00000E+00 0.00000E+00 0.00000E+00
 62.200 9.03611E-05 9.03611E-05 0.00000E+00 0.00000E+00 0.00000E+00
 62.300 5.53258E-05 5.53258E-05 0.00000E+00 0.00000E+00 0.00000E+00
 62.400 3.24426E-05 3.24426E-05 0.00000E+00 0.00000E+00 0.00000E+00
 62.500 1.82207E-05 1.82207E-05 0.00000E+00 0.00000E+00 0.00000E+00
 62.600 9.80091E-06 9.80091E-06 0.00000E+00 0.00000E+00 0.00000E+00
 62.700 5.04903E-06 5.04903E-06 0.00000E+00 0.00000E+00 0.00000E+00
 62.800 2.49122E-06 2.49122E-06 0.00000E+00 0.00000E+00 0.00000E+00
 62.900 1.17722E-06 1.17722E-06 0.00000E+00 0.00000E+00 0.00000E+00
 63.000 5.32799E-07 5.32799E-07 0.00000E+00 0.00000E+00 0.00000E+00
 63.100 2.30953E-07 2.30953E-07 0.00000E+00 0.00000E+00 0.00000E+00
 63.200 9.58781E-08 9.58781E-08 0.00000E+00 0.00000E+00 0.00000E+00
 63.300 3.81225E-08 3.81225E-08 0.00000E+00 0.00000E+00 0.00000E+00
 63.400 1.45171E-08 1.45171E-08 0.00000E+00 0.00000E+00 0.00000E+00
 63.500 5.29475E-09 5.29475E-09 0.00000E+00 0.00000E+00 0.00000E+00
 63.600 1.84954E-09 1.84954E-09 0.00000E+00 0.00000E+00 0.00000E+00
 63.700 6.18748E-10 6.18748E-10 0.00000E+00 0.00000E+00 0.00000E+00
 63.800 1.98260E-10 1.98260E-10 0.00000E+00 0.00000E+00 0.00000E+00
 63.900 6.08397E-11 6.08397E-11 0.00000E+00 0.00000E+00 0.00000E+00
 64.000 1.78818E-11 1.78818E-11 0.00000E+00 0.00000E+00 0.00000E+00
 64.100 5.03369E-12 5.03369E-12 0.00000E+00 0.00000E+00 0.00000E+00
 64.200 1.35711E-12 1.35711E-12 0.00000E+00 0.00000E+00 0.00000E+00
 64.300 3.50387E-13 3.50387E-13 0.00000E+00 0.00000E+00 0.00000E+00
 64.400 8.66520E-14 8.66520E-14 0.00000E+00 0.00000E+00 0.00000E+00
 64.500 2.05239E-14 2.05239E-14 0.00000E+00 0.00000E+00 0.00000E+00
 64.600 4.65580E-15 4.65580E-15 0.00000E+00 0.00000E+00 0.00000E+00
 64.700 1.01153E-15 1.01153E-15 0.00000E+00 0.00000E+00 0.00000E+00
 64.800 2.10458E-16 2.10458E-16 0.00000E+00 0.00000E+00 0.00000E+00
 64.900 4.19424E-17 4.19424E-17 0.00000E+00 0.00000E+00 0.00000E+00
 65.000 8.00560E-18 8.00560E-18 0.00000E+00 0.00000E+00 0.00000E+00
 65.100 1.46348E-18 1.46348E-18 0.00000E+00 0.00000E+00 0.00000E+00
 65.200 2.56230E-19 2.56230E-19 0.00000E+00 0.00000E+00 0.00000E+00
 65.300 4.29602E-20 4.29602E-20 0.00000E+00 0.00000E+00 0.00000E+00
 65.400 6.89942E-21 6.89942E-21 0.00000E+00 0.00000E+00 0.00000E+00
 65.500 1.06123E-21 1.06123E-21 0.00000E+00 0.00000E+00 0.00000E+00
 65.600 1.56337E-22 1.56337E-22 0.00000E+00 0.00000E+00 0.00000E+00
 65.700 2.20579E-23 2.20579E-23 0.00000E+00 0.00000E+00 0.00000E+00
 65.800 2.98024E-24 2.98024E-24 0.00000E+00 0.00000E+00 0.00000E+00
 65.900 3.85705E-25 3.85705E-25 0.00000E+00 0.00000E+00 0.00000E+00
 66.000 4.78093E-26 4.78093E-26 0.00000E+00 0.00000E+00 0.00000E+00
 66.100 5.67572E-27 5.67572E-27 0.00000E+00 0.00000E+00 0.00000E+00
 66.200 6.45329E-28 6.45329E-28 0.00000E+00 0.00000E+00 0.00000E+00
 66.300 7.02618E-29 7.02618E-29 0.00000E+00 0.00000E+00 0.00000E+00
 66.400 7.32795E-30 7.32795E-30 0.00000E+00 0.00000E+00 0.00000E+00
 66.500 7.31976E-31 7.31976E-31 0.00000E+00 0.00000E+00 0.00000E+00
 66.600 7.00267E-32 7.00267E-32 0.00000E+00 0.00000E+00 0.00000E+00
 66.700 6.41627E-33 6.41627E-33 0.00000E+00 0.00000E+00 0.00000E+00
 66.800 5.62952E-34 5.62952E-34 0.00000E+00 0.00000E+00 0.00000E+00
 66.900 4.73143E-35 4.73143E-35 0.00000E+00 0.00000E+00 0.00000E+00
 67.000 3.80860E-36 3.80860E-36 0.00000E+00 0.00000E+00 0.00000E+00
 67.100 2.93623E-37 2.93623E-37 0.00000E+00 0.00000E+00 0.00000E+00
 67.200 2.16804E-38 2.16804E-38 0.00000E+00 0.00000E+00 0.00000E+00
 67.300 1.53288E-39 1.53288E-39 0.00000E+00 0.00000E+00 0.00000E+00
 67.400 1.03821E-40 1.03821E-40 0.00000E+00 0.00000E+00 0.00000E+00
 67.500 6.73464E-42 6.73464E-42 0.00000E+00 0.00000E+00 0.00000E+00
 67.600 4.18988E-43 4.18988E-43 0.00000E+00 0.00000E+00 0.00000E+00
 67.700 2.52234E-44 2.52234E-44 0.00000E+00 0.00000E+00 0.00000E+00
 67.800 1.40130E-45 1.40130E-45 0.00000E+00 0.00000E+00 0.00000E+00
 67.900 0.00000E+00 0.00000E+00 0.00000E+00 0.00000E+00 0.00000E+00
 68.000 0.00000E+00 0.00000E+00 0.00000E+00 0.00000E+00 0.00000E+00
 68.100 0.00000E+00 0.00000E+00 0.00000E+00 0.00000E+00 0.00000E+00
 68.200 0.00000E+00 0.00000E+00 0.00000E+00 0.00000E+00 0.00000E+00
 68.300 0.00000E+00 0.00000E+00 0.00000E+00 0.00000E+00 0.00000E+00
 68.400 0.00000E+00 0.00000E+00 0.00000E+00 0.00000E+00 0.00000E+00
 68.500 0.00000E+00 0.00000E+00 0.00000E+00 0.00000E+00 0.00000E+00
 68.600 0.00000E+00 0.00000E+00 0.00000E+00 0.00000E+00 0.00000E+00
 68.700 0.00000E+00 0.00000E+00 0.00000E+00 0.00000E+00 0.00000E+00
 68.800 0.00000E+00 0.00000E+00 0.00000E+00 0.00000E+00 0.00000E+00
 68.900 0.00000E+00 0.00000E+00 0.00000E+00 0.00000E+00 0.00000E+00
 69.000 0.00000E+00 0.00000E+00 0.00000E+00 0.00000E+00 0.00000E+00
 69.100 0.00000E+00 0.00000E+00 0.00000E+00 0.00000E+00 0.00000E+00
 69.200 0.00000E+00 0.00000E+00 0.00000E+00 0.00000E+00 0.00000E+00
 69.300 0.00000E+00 0.00000E+00 0.00000E+00 0.00000E+00 0.00000E+00
 69.400 0.00000E+00 0.00000E+00 0.00000E+00 0.00000E+00 0.00000E+00
 69.500 0.00000E+00 0.00000E+00 0.00000E+00 0.00000E+00 0.00000E+00
 69.600 0.00000E+00 0.00000E+00 0.00000E+00 0.00000E+00 0.00000E+00
 69.700 0.00000E+00 0.00000E+00 0.00000E+00 0.00000E+00 0.00000E+00
 69.800 0.00000E+00 0.00000E+00 0.00000E+00 0.00000E+00 0.00000E+00
 69.900 0.00000E+00 0.00000E+00 0.00000E+00 0.00000E+00 0.00000E+00
 70.000 0.00000E+00 0.00000E+00 0.00000E+00 0.00000E+00 0.00000E+00
