# n + 209Bi: deuteron DDX spectrum
# E-incident =   63.000
# Angle      =  70.000
# # energies =   227
#  E-out    Total       Direct    Pre-equil.  Mult. preeq  Compound
   0.400 5.26137E-14 0.00000E+00 0.00000E+00 0.00000E+00 5.26137E-14
   0.500 6.57671E-14 0.00000E+00 0.00000E+00 0.00000E+00 6.57671E-14
   0.600 7.89206E-14 0.00000E+00 0.00000E+00 0.00000E+00 7.89206E-14
   0.700 3.32476E-13 0.00000E+00 1.82169E-44 0.00000E+00 3.32476E-13
   0.800 4.53427E-12 0.00000E+00 1.16469E-40 0.00000E+00 4.53427E-12
   0.900 2.01526E-11 0.00000E+00 1.62515E-37 0.00000E+00 2.01526E-11
   1.000 2.05112E-11 0.00000E+00 3.96206E-34 0.00000E+00 2.05112E-11
   1.100 2.16399E-11 0.00000E+00 7.61271E-32 0.00000E+00 2.16399E-11
   1.200 2.38667E-11 0.00000E+00 7.40224E-30 0.00000E+00 2.38667E-11
   1.300 2.97924E-11 0.00000E+00 4.16410E-28 0.00000E+00 2.97924E-11
   1.400 3.40407E-11 0.00000E+00 1.49657E-26 0.00000E+00 3.40407E-11
   1.500 3.45774E-11 0.00000E+00 3.70972E-25 0.00000E+00 3.45774E-11
   1.600 3.58327E-11 0.00000E+00 6.72539E-24 0.00000E+00 3.58327E-11
   1.700 4.84847E-11 0.00000E+00 9.34302E-23 0.00000E+00 4.84847E-11
   1.800 1.64589E-07 0.00000E+00 1.03257E-21 0.00000E+00 1.64589E-07
   1.900 3.40678E-07 0.00000E+00 9.35948E-21 0.00000E+00 3.40678E-07
   2.000 3.48745E-07 0.00000E+00 7.13293E-20 0.00000E+00 3.48745E-07
   2.200 3.66688E-07 0.00000E+00 2.67031E-18 0.00000E+00 3.66688E-07
   2.400 3.86025E-07 0.00000E+00 6.17082E-17 0.00000E+00 3.86025E-07
   2.600 4.10099E-07 0.00000E+00 9.67568E-16 0.00000E+00 4.10099E-07
   2.800 4.74017E-07 0.00000E+00 1.10507E-14 0.00000E+00 4.74017E-07
   3.000 3.95498E-06 0.00000E+00 9.70217E-14 0.00000E+00 3.95498E-06
   3.200 5.68793E-06 0.00000E+00 6.82931E-13 0.00000E+00 5.68793E-06
   3.400 5.95571E-06 0.00000E+00 3.98567E-12 0.00000E+00 5.95570E-06
   3.600 7.12845E-06 0.00000E+00 1.98083E-11 0.00000E+00 7.12843E-06
   3.800 7.53794E-06 0.00000E+00 8.57046E-11 0.00000E+00 7.53786E-06
   4.000 8.75572E-06 0.00000E+00 3.28683E-10 0.00000E+00 8.75539E-06
   4.500 1.24893E-05 0.00000E+00 6.12851E-09 0.00000E+00 1.24832E-05
   5.000 3.57500E-05 0.00000E+00 7.00816E-08 0.00000E+00 3.56799E-05
   5.500 9.47042E-05 0.00000E+00 5.53678E-07 0.00000E+00 9.41505E-05
   6.000 1.70327E-04 0.00000E+00 3.28171E-06 0.00000E+00 1.67045E-04
   6.500 2.42212E-04 0.00000E+00 1.54690E-05 0.00000E+00 2.26743E-04
   7.000 3.48073E-04 0.00000E+00 6.04492E-05 0.00000E+00 2.87624E-04
   7.500 5.48075E-04 0.00000E+00 2.01578E-04 0.00000E+00 3.46497E-04
   8.000 1.02317E-03 0.00000E+00 5.84203E-04 0.00000E+00 4.38967E-04
   8.500 2.02880E-03 0.00000E+00 1.48382E-03 0.00000E+00 5.44979E-04
   9.000 3.94469E-03 0.00000E+00 3.30316E-03 0.00000E+00 6.41529E-04
   9.500 7.11230E-03 0.00000E+00 6.43313E-03 0.00000E+00 6.79173E-04
  10.000 1.17168E-02 0.00000E+00 1.10319E-02 0.00000E+00 6.84818E-04
  10.500 1.76430E-02 0.00000E+00 1.69764E-02 0.00000E+00 6.66575E-04
  11.000 2.46576E-02 0.00000E+00 2.40132E-02 0.00000E+00 6.44467E-04
  11.500 3.24746E-02 0.00000E+00 3.18748E-02 0.00000E+00 5.99749E-04
  12.000 4.08157E-02 0.00000E+00 4.02813E-02 0.00000E+00 5.34333E-04
  12.500 4.93995E-02 0.00000E+00 4.89520E-02 0.00000E+00 4.47453E-04
  13.000 5.79972E-02 0.00000E+00 5.76142E-02 0.00000E+00 3.82947E-04
  13.500 6.63136E-02 0.00000E+00 6.60099E-02 0.00000E+00 3.03699E-04
  14.000 7.41783E-02 0.00000E+00 7.39461E-02 0.00000E+00 2.32129E-04
  14.500 8.15128E-02 0.00000E+00 8.13377E-02 0.00000E+00 1.75052E-04
  15.000 8.82922E-02 0.00000E+00 8.81822E-02 0.00000E+00 1.10044E-04
  15.500 9.45862E-02 0.00000E+00 9.45044E-02 0.00000E+00 8.17766E-05
  16.000 1.00393E-01 0.00000E+00 1.00328E-01 0.00000E+00 6.42935E-05
  16.500 1.05723E-01 0.00000E+00 1.05685E-01 0.00000E+00 3.81820E-05
  17.000 1.10631E-01 0.00000E+00 1.10609E-01 0.00000E+00 2.29010E-05
  17.500 1.15144E-01 0.00000E+00 1.15130E-01 0.00000E+00 1.42858E-05
  18.000 1.19275E-01 0.00000E+00 1.19264E-01 0.00000E+00 1.11065E-05
  18.500 1.23020E-01 0.00000E+00 1.23012E-01 0.00000E+00 8.83908E-06
  19.000 1.26374E-01 0.00000E+00 1.26370E-01 0.00000E+00 4.56004E-06
  19.500 1.29344E-01 0.00000E+00 1.29342E-01 0.00000E+00 2.29174E-06
  20.000 1.31946E-01 0.00000E+00 1.31945E-01 0.00000E+00 1.73842E-06
  21.000 1.36127E-01 0.00000E+00 1.36126E-01 0.00000E+00 9.73945E-07
  22.000 1.39087E-01 0.00000E+00 1.39087E-01 0.00000E+00 2.90456E-07
  23.000 1.40951E-01 0.00000E+00 1.40951E-01 0.00000E+00 1.64518E-07
  24.000 1.41775E-01 0.00000E+00 1.41775E-01 0.00000E+00 7.57586E-08
  25.000 1.41589E-01 0.00000E+00 1.41588E-01 0.00000E+00 2.68578E-08
  26.000 1.40484E-01 0.00000E+00 1.40484E-01 0.00000E+00 1.51045E-08
  27.000 1.38740E-01 0.00000E+00 1.38740E-01 0.00000E+00 4.32956E-09
  28.000 1.36477E-01 0.00000E+00 1.36477E-01 0.00000E+00 2.64604E-09
  29.000 1.33765E-01 0.00000E+00 1.33765E-01 0.00000E+00 1.00013E-09
  30.000 1.30654E-01 0.00000E+00 1.30654E-01 0.00000E+00 4.42713E-10
  31.000 1.27189E-01 0.00000E+00 1.27189E-01 0.00000E+00 1.85332E-10
  32.000 1.23416E-01 0.00000E+00 1.23416E-01 0.00000E+00 3.29136E-12
  33.000 1.19387E-01 0.00000E+00 1.19387E-01 0.00000E+00 0.00000E+00
  34.000 1.15159E-01 0.00000E+00 1.15159E-01 0.00000E+00 0.00000E+00
  35.000 1.10785E-01 0.00000E+00 1.10785E-01 0.00000E+00 0.00000E+00
  36.000 1.06303E-01 0.00000E+00 1.06303E-01 0.00000E+00 0.00000E+00
  37.000 1.01747E-01 0.00000E+00 1.01747E-01 0.00000E+00 0.00000E+00
  38.000 9.71408E-02 0.00000E+00 9.71408E-02 0.00000E+00 0.00000E+00
  39.000 9.25160E-02 0.00000E+00 9.25160E-02 0.00000E+00 0.00000E+00
  40.000 8.79032E-02 0.00000E+00 8.79032E-02 0.00000E+00 0.00000E+00
  42.000 7.88389E-02 0.00000E+00 7.88389E-02 0.00000E+00 0.00000E+00
  44.000 7.01617E-02 0.00000E+00 7.01617E-02 0.00000E+00 0.00000E+00
  46.000 6.20263E-02 0.00000E+00 6.20263E-02 0.00000E+00 0.00000E+00
  48.000 5.45431E-02 0.00000E+00 5.45431E-02 0.00000E+00 0.00000E+00
  50.000 4.77878E-02 0.00000E+00 4.77878E-02 0.00000E+00 0.00000E+00
  52.000 4.17899E-02 0.00000E+00 4.17899E-02 0.00000E+00 0.00000E+00
  54.000 3.65376E-02 0.00000E+00 3.65376E-02 0.00000E+00 0.00000E+00
  56.000 3.19878E-02 0.00000E+00 3.19878E-02 0.00000E+00 0.00000E+00
  56.100 3.07348E-02 2.11041E-04 3.05238E-02 0.00000E+00 0.00000E+00
  56.200 2.94472E-02 3.87396E-04 2.90598E-02 0.00000E+00 0.00000E+00
  56.300 2.82749E-02 6.79083E-04 2.75958E-02 0.00000E+00 0.00000E+00
  56.400 2.72696E-02 1.13774E-03 2.61318E-02 0.00000E+00 0.00000E+00
  56.500 2.64914E-02 1.82351E-03 2.46679E-02 0.00000E+00 0.00000E+00
  56.600 2.60028E-02 2.79894E-03 2.32039E-02 0.00000E+00 0.00000E+00
  56.700 2.58594E-02 4.11952E-03 2.17399E-02 0.00000E+00 0.00000E+00
  56.800 2.60981E-02 5.82216E-03 2.02759E-02 0.00000E+00 0.00000E+00
  56.900 2.67269E-02 7.91500E-03 1.88119E-02 0.00000E+00 0.00000E+00
  57.000 2.77186E-02 1.03706E-02 1.73480E-02 0.00000E+00 0.00000E+00
  57.100 2.90117E-02 1.31277E-02 1.58840E-02 0.00000E+00 0.00000E+00
  57.200 3.05209E-02 1.61009E-02 1.44200E-02 0.00000E+00 0.00000E+00
  57.300 3.21541E-02 1.91981E-02 1.29560E-02 0.00000E+00 0.00000E+00
  57.400 3.38357E-02 2.23437E-02 1.14920E-02 0.00000E+00 0.00000E+00
  57.500 3.55242E-02 2.54962E-02 1.00281E-02 0.00000E+00 0.00000E+00
  57.600 3.72213E-02 2.86572E-02 8.56411E-03 0.00000E+00 0.00000E+00
  57.700 3.89617E-02 3.18616E-02 7.10009E-03 0.00000E+00 0.00000E+00
  57.800 4.07840E-02 3.51479E-02 5.63614E-03 0.00000E+00 0.00000E+00
  57.900 4.26861E-02 3.85139E-02 4.17212E-03 0.00000E+00 0.00000E+00
  58.000 4.45774E-02 4.18693E-02 2.70817E-03 0.00000E+00 0.00000E+00
  58.100 4.75780E-02 4.50053E-02 2.57276E-03 0.00000E+00 0.00000E+00
  58.200 5.00350E-02 4.75977E-02 2.43735E-03 0.00000E+00 0.00000E+00
  58.300 5.15549E-02 4.92530E-02 2.30194E-03 0.00000E+00 0.00000E+00
  58.400 5.17591E-02 4.95925E-02 2.16653E-03 0.00000E+00 0.00000E+00
  58.500 5.03821E-02 4.83509E-02 2.03113E-03 0.00000E+00 0.00000E+00
  58.600 4.73549E-02 4.54592E-02 1.89572E-03 0.00000E+00 0.00000E+00
  58.700 4.28421E-02 4.10818E-02 1.76031E-03 0.00000E+00 0.00000E+00
  58.800 3.72212E-02 3.55963E-02 1.62490E-03 0.00000E+00 0.00000E+00
  58.900 3.10057E-02 2.95162E-02 1.48949E-03 0.00000E+00 0.00000E+00
  59.000 2.47437E-02 2.33896E-02 1.35408E-03 0.00000E+00 0.00000E+00
  59.100 1.89141E-02 1.76955E-02 1.21868E-03 0.00000E+00 0.00000E+00
  59.200 1.38570E-02 1.27737E-02 1.08327E-03 0.00000E+00 0.00000E+00
  59.300 9.74642E-03 8.79856E-03 9.47860E-04 0.00000E+00 0.00000E+00
  59.400 6.60371E-03 5.79127E-03 8.12448E-04 0.00000E+00 0.00000E+00
  59.500 4.34104E-03 3.66400E-03 6.77042E-04 0.00000E+00 0.00000E+00
  59.600 2.81316E-03 2.27153E-03 5.41636E-04 0.00000E+00 0.00000E+00
  59.700 1.86581E-03 1.45959E-03 4.06224E-04 0.00000E+00 0.00000E+00
  59.800 1.36975E-03 1.09894E-03 2.70818E-04 0.00000E+00 0.00000E+00
  59.900 1.23843E-03 1.10302E-03 1.35406E-04 0.00000E+00 0.00000E+00
  60.000 1.43127E-03 1.43127E-03 0.00000E+00 0.00000E+00 0.00000E+00
  60.100 2.08099E-03 2.08099E-03 0.00000E+00 0.00000E+00 0.00000E+00
  60.200 3.07148E-03 3.07148E-03 0.00000E+00 0.00000E+00 0.00000E+00
  60.300 4.42292E-03 4.42292E-03 0.00000E+00 0.00000E+00 0.00000E+00
  60.400 6.13400E-03 6.13400E-03 0.00000E+00 0.00000E+00 0.00000E+00
  60.500 8.16086E-03 8.16086E-03 0.00000E+00 0.00000E+00 0.00000E+00
  60.600 1.04037E-02 1.04037E-02 0.00000E+00 0.00000E+00 0.00000E+00
  60.700 1.27043E-02 1.27043E-02 0.00000E+00 0.00000E+00 0.00000E+00
  60.800 1.48587E-02 1.48587E-02 0.00000E+00 0.00000E+00 0.00000E+00
  60.900 1.66443E-02 1.66443E-02 0.00000E+00 0.00000E+00 0.00000E+00
  61.000 1.78568E-02 1.78568E-02 0.00000E+00 0.00000E+00 0.00000E+00
  61.100 1.83482E-02 1.83482E-02 0.00000E+00 0.00000E+00 0.00000E+00
  61.200 1.80564E-02 1.80564E-02 0.00000E+00 0.00000E+00 0.00000E+00
  61.300 1.70186E-02 1.70186E-02 0.00000E+00 0.00000E+00 0.00000E+00
  61.400 1.53625E-02 1.53625E-02 0.00000E+00 0.00000E+00 0.00000E+00
  61.500 1.32817E-02 1.32817E-02 0.00000E+00 0.00000E+00 0.00000E+00
  61.600 1.09976E-02 1.09976E-02 0.00000E+00 0.00000E+00 0.00000E+00
  61.700 8.72147E-03 8.72147E-03 0.00000E+00 0.00000E+00 0.00000E+00
  61.800 6.62423E-03 6.62423E-03 0.00000E+00 0.00000E+00 0.00000E+00
  61.900 4.81866E-03 4.81866E-03 0.00000E+00 0.00000E+00 0.00000E+00
  62.000 3.35717E-03 3.35717E-03 0.00000E+00 0.00000E+00 0.00000E+00
  62.100 2.24013E-03 2.24013E-03 0.00000E+00 0.00000E+00 0.00000E+00
  62.200 1.43158E-03 1.43158E-03 0.00000E+00 0.00000E+00 0.00000E+00
  62.300 8.76223E-04 8.76223E-04 0.00000E+00 0.00000E+00 0.00000E+00
  62.400 5.13638E-04 5.13638E-04 0.00000E+00 0.00000E+00 0.00000E+00
  62.500 2.88376E-04 2.88376E-04 0.00000E+00 0.00000E+00 0.00000E+00
  62.600 1.55065E-04 1.55065E-04 0.00000E+00 0.00000E+00 0.00000E+00
  62.700 7.98557E-05 7.98557E-05 0.00000E+00 0.00000E+00 0.00000E+00
  62.800 3.93877E-05 3.93877E-05 0.00000E+00 0.00000E+00 0.00000E+00
  62.900 1.86061E-05 1.86061E-05 0.00000E+00 0.00000E+00 0.00000E+00
  63.000 8.41805E-06 8.41805E-06 0.00000E+00 0.00000E+00 0.00000E+00
  63.100 3.64770E-06 3.64770E-06 0.00000E+00 0.00000E+00 0.00000E+00
  63.200 1.51378E-06 1.51378E-06 0.00000E+00 0.00000E+00 0.00000E+00
  63.300 6.01691E-07 6.01691E-07 0.00000E+00 0.00000E+00 0.00000E+00
  63.400 2.29044E-07 2.29044E-07 0.00000E+00 0.00000E+00 0.00000E+00
  63.500 8.35084E-08 8.35084E-08 0.00000E+00 0.00000E+00 0.00000E+00
  63.600 2.91604E-08 2.91604E-08 0.00000E+00 0.00000E+00 0.00000E+00
  63.700 9.75189E-09 9.75189E-09 0.00000E+00 0.00000E+00 0.00000E+00
  63.800 3.12359E-09 3.12359E-09 0.00000E+00 0.00000E+00 0.00000E+00
  63.900 9.58187E-10 9.58187E-10 0.00000E+00 0.00000E+00 0.00000E+00
  64.000 2.81525E-10 2.81525E-10 0.00000E+00 0.00000E+00 0.00000E+00
  64.100 7.92198E-11 7.92198E-11 0.00000E+00 0.00000E+00 0.00000E+00
  64.200 2.13502E-11 2.13502E-11 0.00000E+00 0.00000E+00 0.00000E+00
  64.300 5.51033E-12 5.51033E-12 0.00000E+00 0.00000E+00 0.00000E+00
  64.400 1.36222E-12 1.36222E-12 0.00000E+00 0.00000E+00 0.00000E+00
  64.500 3.22529E-13 3.22529E-13 0.00000E+00 0.00000E+00 0.00000E+00
  64.600 7.31377E-14 7.31377E-14 0.00000E+00 0.00000E+00 0.00000E+00
  64.700 1.58842E-14 1.58842E-14 0.00000E+00 0.00000E+00 0.00000E+00
  64.800 3.30360E-15 3.30360E-15 0.00000E+00 0.00000E+00 0.00000E+00
  64.900 6.58131E-16 6.58131E-16 0.00000E+00 0.00000E+00 0.00000E+00
  65.000 1.25571E-16 1.25571E-16 0.00000E+00 0.00000E+00 0.00000E+00
  65.100 2.29464E-17 2.29464E-17 0.00000E+00 0.00000E+00 0.00000E+00
  65.200 4.01600E-18 4.01600E-18 0.00000E+00 0.00000E+00 0.00000E+00
  65.300 6.73075E-19 6.73075E-19 0.00000E+00 0.00000E+00 0.00000E+00
  65.400 1.08055E-19 1.08055E-19 0.00000E+00 0.00000E+00 0.00000E+00
  65.500 1.66140E-20 1.66140E-20 0.00000E+00 0.00000E+00 0.00000E+00
  65.600 2.44656E-21 2.44656E-21 0.00000E+00 0.00000E+00 0.00000E+00
  65.700 3.45057E-22 3.45057E-22 0.00000E+00 0.00000E+00 0.00000E+00
  65.800 4.66022E-23 4.66022E-23 0.00000E+00 0.00000E+00 0.00000E+00
  65.900 6.02895E-24 6.02895E-24 0.00000E+00 0.00000E+00 0.00000E+00
  66.000 7.47013E-25 7.47013E-25 0.00000E+00 0.00000E+00 0.00000E+00
  66.100 8.86470E-26 8.86470E-26 0.00000E+00 0.00000E+00 0.00000E+00
  66.200 1.00752E-26 1.00752E-26 0.00000E+00 0.00000E+00 0.00000E+00
  66.300 1.09652E-27 1.09652E-27 0.00000E+00 0.00000E+00 0.00000E+00
  66.400 1.14316E-28 1.14316E-28 0.00000E+00 0.00000E+00 0.00000E+00
  66.500 1.14143E-29 1.14143E-29 0.00000E+00 0.00000E+00 0.00000E+00
  66.600 1.09154E-30 1.09154E-30 0.00000E+00 0.00000E+00 0.00000E+00
  66.700 9.99732E-32 9.99732E-32 0.00000E+00 0.00000E+00 0.00000E+00
  66.800 8.76794E-33 8.76794E-33 0.00000E+00 0.00000E+00 0.00000E+00
  66.900 7.36616E-34 7.36616E-34 0.00000E+00 0.00000E+00 0.00000E+00
  67.000 5.92698E-35 5.92698E-35 0.00000E+00 0.00000E+00 0.00000E+00
  67.100 4.56754E-36 4.56754E-36 0.00000E+00 0.00000E+00 0.00000E+00
  67.200 3.37114E-37 3.37114E-37 0.00000E+00 0.00000E+00 0.00000E+00
  67.300 2.38255E-38 2.38255E-38 0.00000E+00 0.00000E+00 0.00000E+00
  67.400 1.61302E-39 1.61302E-39 0.00000E+00 0.00000E+00 0.00000E+00
  67.500 1.04590E-40 1.04590E-40 0.00000E+00 0.00000E+00 0.00000E+00
  67.600 6.49502E-42 6.49502E-42 0.00000E+00 0.00000E+00 0.00000E+00
  67.700 3.86758E-43 3.86758E-43 0.00000E+00 0.00000E+00 0.00000E+00
  67.800 2.24208E-44 2.24208E-44 0.00000E+00 0.00000E+00 0.00000E+00
  67.900 1.40130E-45 1.40130E-45 0.00000E+00 0.00000E+00 0.00000E+00
  68.000 0.00000E+00 0.00000E+00 0.00000E+00 0.00000E+00 0.00000E+00
  68.100 0.00000E+00 0.00000E+00 0.00000E+00 0.00000E+00 0.00000E+00
  68.200 0.00000E+00 0.00000E+00 0.00000E+00 0.00000E+00 0.00000E+00
  68.300 0.00000E+00 0.00000E+00 0.00000E+00 0.00000E+00 0.00000E+00
  68.400 0.00000E+00 0.00000E+00 0.00000E+00 0.00000E+00 0.00000E+00
  68.500 0.00000E+00 0.00000E+00 0.00000E+00 0.00000E+00 0.00000E+00
  68.600 0.00000E+00 0.00000E+00 0.00000E+00 0.00000E+00 0.00000E+00
  68.700 0.00000E+00 0.00000E+00 0.00000E+00 0.00000E+00 0.00000E+00
  68.800 0.00000E+00 0.00000E+00 0.00000E+00 0.00000E+00 0.00000E+00
  68.900 0.00000E+00 0.00000E+00 0.00000E+00 0.00000E+00 0.00000E+00
  69.000 0.00000E+00 0.00000E+00 0.00000E+00 0.00000E+00 0.00000E+00
  69.100 0.00000E+00 0.00000E+00 0.00000E+00 0.00000E+00 0.00000E+00
  69.200 0.00000E+00 0.00000E+00 0.00000E+00 0.00000E+00 0.00000E+00
  69.300 0.00000E+00 0.00000E+00 0.00000E+00 0.00000E+00 0.00000E+00
  69.400 0.00000E+00 0.00000E+00 0.00000E+00 0.00000E+00 0.00000E+00
  69.500 0.00000E+00 0.00000E+00 0.00000E+00 0.00000E+00 0.00000E+00
  69.600 0.00000E+00 0.00000E+00 0.00000E+00 0.00000E+00 0.00000E+00
  69.700 0.00000E+00 0.00000E+00 0.00000E+00 0.00000E+00 0.00000E+00
  69.800 0.00000E+00 0.00000E+00 0.00000E+00 0.00000E+00 0.00000E+00
  69.900 0.00000E+00 0.00000E+00 0.00000E+00 0.00000E+00 0.00000E+00
  70.000 0.00000E+00 0.00000E+00 0.00000E+00 0.00000E+00 0.00000E+00
