# n + 209Bi: helium-3 DDX spectrum
# E-incident =  63.000
# Angle      =  20.000
# # energies =223
# E-out    Total       Direct    Pre-equil.  Mult. preeq  Compound
  0.700 0.00000E+00 0.00000E+00 0.00000E+00 0.00000E+00 0.00000E+00
  0.800 0.00000E+00 0.00000E+00 0.00000E+00 0.00000E+00 0.00000E+00
  0.900 0.00000E+00 0.00000E+00 0.00000E+00 0.00000E+00 0.00000E+00
  1.000 0.00000E+00 0.00000E+00 0.00000E+00 0.00000E+00 0.00000E+00
  1.100 0.00000E+00 0.00000E+00 0.00000E+00 0.00000E+00 0.00000E+00
  1.200 0.00000E+00 0.00000E+00 0.00000E+00 0.00000E+00 0.00000E+00
  1.300 0.00000E+00 0.00000E+00 0.00000E+00 0.00000E+00 0.00000E+00
  1.400 0.00000E+00 0.00000E+00 0.00000E+00 0.00000E+00 0.00000E+00
  1.500 0.00000E+00 0.00000E+00 0.00000E+00 0.00000E+00 0.00000E+00
  1.600 0.00000E+00 0.00000E+00 0.00000E+00 0.00000E+00 0.00000E+00
  1.700 0.00000E+00 0.00000E+00 0.00000E+00 0.00000E+00 0.00000E+00
  1.800 0.00000E+00 0.00000E+00 0.00000E+00 0.00000E+00 0.00000E+00
  1.900 0.00000E+00 0.00000E+00 0.00000E+00 0.00000E+00 0.00000E+00
  2.000 0.00000E+00 0.00000E+00 0.00000E+00 0.00000E+00 0.00000E+00
  2.200 0.00000E+00 0.00000E+00 0.00000E+00 0.00000E+00 0.00000E+00
  2.400 4.20390E-45 0.00000E+00 4.20390E-45 0.00000E+00 0.00000E+00
  2.600 2.97215E-42 0.00000E+00 2.97215E-42 0.00000E+00 0.00000E+00
  2.800 1.03947E-39 0.00000E+00 1.03947E-39 0.00000E+00 0.00000E+00
  3.000 1.67777E-36 0.00000E+00 1.67777E-36 0.00000E+00 0.00000E+00
  3.200 1.85294E-34 0.00000E+00 1.85294E-34 0.00000E+00 0.00000E+00
  3.400 1.29512E-32 0.00000E+00 1.29512E-32 0.00000E+00 0.00000E+00
  3.600 6.13622E-31 0.00000E+00 6.13622E-31 0.00000E+00 0.00000E+00
  3.800 2.07458E-29 0.00000E+00 2.07458E-29 0.00000E+00 0.00000E+00
  4.000 5.22556E-28 0.00000E+00 5.22556E-28 0.00000E+00 0.00000E+00
  4.500 5.71407E-25 0.00000E+00 5.71407E-25 0.00000E+00 0.00000E+00
  5.000 1.85996E-22 0.00000E+00 1.85996E-22 0.00000E+00 0.00000E+00
  5.500 2.39678E-20 0.00000E+00 2.39678E-20 0.00000E+00 0.00000E+00
  6.000 1.49566E-18 0.00000E+00 1.49566E-18 0.00000E+00 0.00000E+00
  6.500 5.23573E-17 0.00000E+00 5.23573E-17 0.00000E+00 0.00000E+00
  7.000 1.14846E-15 0.00000E+00 1.14846E-15 0.00000E+00 0.00000E+00
  7.500 1.71914E-14 0.00000E+00 1.71914E-14 0.00000E+00 0.00000E+00
  8.000 1.87733E-13 0.00000E+00 1.87733E-13 0.00000E+00 0.00000E+00
  8.500 1.57696E-12 0.00000E+00 1.57696E-12 0.00000E+00 0.00000E+00
  9.000 1.06307E-11 0.00000E+00 1.06307E-11 0.00000E+00 0.00000E+00
  9.500 5.94953E-11 0.00000E+00 5.94953E-11 0.00000E+00 0.00000E+00
 10.000 2.89421E-10 0.00000E+00 2.84129E-10 0.00000E+00 5.29236E-12
 10.500 1.44577E-09 0.00000E+00 1.18383E-09 0.00000E+00 2.61945E-10
 11.000 5.82097E-09 0.00000E+00 4.38268E-09 0.00000E+00 1.43829E-09
 11.500 1.75586E-08 0.00000E+00 1.46360E-08 0.00000E+00 2.92265E-09
 12.000 5.07308E-08 0.00000E+00 4.46536E-08 0.00000E+00 6.07719E-09
 12.500 1.38898E-07 0.00000E+00 1.25825E-07 0.00000E+00 1.30732E-08
 13.000 3.51540E-07 0.00000E+00 3.30503E-07 0.00000E+00 2.10369E-08
 13.500 8.50859E-07 0.00000E+00 8.15797E-07 0.00000E+00 3.50618E-08
 14.000 1.96200E-06 0.00000E+00 1.90532E-06 0.00000E+00 5.66874E-08
 14.500 4.31410E-06 0.00000E+00 4.23520E-06 0.00000E+00 7.89040E-08
 15.000 9.11733E-06 0.00000E+00 9.00433E-06 0.00000E+00 1.12999E-07
 15.500 1.85390E-05 0.00000E+00 1.83842E-05 0.00000E+00 1.54754E-07
 16.000 3.63617E-05 0.00000E+00 3.61644E-05 0.00000E+00 1.97312E-07
 16.500 6.89655E-05 0.00000E+00 6.87120E-05 0.00000E+00 2.53445E-07
 17.000 1.26634E-04 0.00000E+00 1.26323E-04 0.00000E+00 3.10603E-07
 17.500 2.25313E-04 0.00000E+00 2.24945E-04 0.00000E+00 3.68145E-07
 18.000 3.88498E-04 0.00000E+00 3.88074E-04 0.00000E+00 4.23694E-07
 18.500 6.48731E-04 0.00000E+00 6.48256E-04 0.00000E+00 4.75345E-07
 19.000 1.04745E-03 0.00000E+00 1.04694E-03 0.00000E+00 5.14465E-07
 19.500 1.63160E-03 0.00000E+00 1.63107E-03 0.00000E+00 5.26463E-07
 20.000 2.44547E-03 0.00000E+00 2.44494E-03 0.00000E+00 5.34758E-07
 21.000 4.85458E-03 0.00000E+00 4.85411E-03 0.00000E+00 4.68844E-07
 22.000 8.18316E-03 0.00000E+00 8.18280E-03 0.00000E+00 3.62264E-07
 23.000 1.20088E-02 0.00000E+00 1.20085E-02 0.00000E+00 2.33149E-07
 24.000 1.59058E-02 0.00000E+00 1.59057E-02 0.00000E+00 1.40869E-07
 25.000 1.95400E-02 0.00000E+00 1.95399E-02 0.00000E+00 7.60612E-08
 26.000 2.26661E-02 0.00000E+00 2.26661E-02 0.00000E+00 3.62194E-08
 27.000 2.53434E-02 0.00000E+00 2.53434E-02 0.00000E+00 1.80546E-08
 28.000 2.75689E-02 0.00000E+00 2.75689E-02 0.00000E+00 8.65827E-09
 29.000 2.93607E-02 0.00000E+00 2.93607E-02 0.00000E+00 3.66817E-09
 30.000 3.07465E-02 0.00000E+00 3.07465E-02 0.00000E+00 1.47630E-09
 31.000 3.17581E-02 0.00000E+00 3.17581E-02 0.00000E+00 7.15112E-10
 32.000 3.24286E-02 0.00000E+00 3.24286E-02 0.00000E+00 2.90750E-10
 33.000 3.27898E-02 0.00000E+00 3.27898E-02 0.00000E+00 0.00000E+00
 34.000 3.28717E-02 0.00000E+00 3.28717E-02 0.00000E+00 0.00000E+00
 35.000 3.27038E-02 0.00000E+00 3.27038E-02 0.00000E+00 0.00000E+00
 36.000 3.23126E-02 0.00000E+00 3.23126E-02 0.00000E+00 0.00000E+00
 37.000 3.17246E-02 0.00000E+00 3.17246E-02 0.00000E+00 0.00000E+00
 38.000 3.09650E-02 0.00000E+00 3.09650E-02 0.00000E+00 0.00000E+00
 39.000 3.00569E-02 0.00000E+00 3.00569E-02 0.00000E+00 0.00000E+00
 40.000 2.90219E-02 0.00000E+00 2.90219E-02 0.00000E+00 0.00000E+00
 42.000 2.66508E-02 0.00000E+00 2.66508E-02 0.00000E+00 0.00000E+00
 44.000 2.39904E-02 0.00000E+00 2.39904E-02 0.00000E+00 0.00000E+00
 46.000 2.11507E-02 0.00000E+00 2.11507E-02 0.00000E+00 0.00000E+00
 48.000 1.82068E-02 0.00000E+00 1.82068E-02 0.00000E+00 0.00000E+00
 50.000 1.51925E-02 0.00000E+00 1.51925E-02 0.00000E+00 0.00000E+00
 52.000 1.20931E-02 0.00000E+00 1.20931E-02 0.00000E+00 0.00000E+00
 54.000 8.83409E-03 0.00000E+00 8.83409E-03 0.00000E+00 0.00000E+00
 54.100 8.51041E-03 3.06738E-07 8.51010E-03 0.00000E+00 0.00000E+00
 54.200 8.18693E-03 8.34039E-07 8.18609E-03 0.00000E+00 0.00000E+00
 54.300 7.86425E-03 2.14354E-06 7.86210E-03 0.00000E+00 0.00000E+00
 54.400 7.54331E-03 5.20756E-06 7.53810E-03 0.00000E+00 0.00000E+00
 54.500 7.22607E-03 1.19582E-05 7.21411E-03 0.00000E+00 0.00000E+00
 54.600 6.91607E-03 2.59565E-05 6.89012E-03 0.00000E+00 0.00000E+00
 54.700 6.61937E-03 5.32584E-05 6.56611E-03 0.00000E+00 0.00000E+00
 54.800 6.34542E-03 1.03293E-04 6.24212E-03 0.00000E+00 0.00000E+00
 54.900 6.10750E-03 1.89378E-04 5.91812E-03 0.00000E+00 0.00000E+00
 55.000 5.92234E-03 3.28214E-04 5.59413E-03 0.00000E+00 0.00000E+00
 55.100 5.80789E-03 5.37759E-04 5.27014E-03 0.00000E+00 0.00000E+00
 55.200 5.77919E-03 8.33055E-04 4.94613E-03 0.00000E+00 0.00000E+00
 55.300 5.84245E-03 1.22031E-03 4.62214E-03 0.00000E+00 0.00000E+00
 55.400 5.98905E-03 1.69091E-03 4.29814E-03 0.00000E+00 0.00000E+00
 55.500 6.19146E-03 2.21731E-03 3.97414E-03 0.00000E+00 0.00000E+00
 55.600 6.40416E-03 2.75400E-03 3.65015E-03 0.00000E+00 0.00000E+00
 55.700 6.57084E-03 3.24469E-03 3.32615E-03 0.00000E+00 0.00000E+00
 55.800 6.63740E-03 3.63524E-03 3.00216E-03 0.00000E+00 0.00000E+00
 55.900 6.56754E-03 3.88939E-03 2.67815E-03 0.00000E+00 0.00000E+00
 56.000 6.35561E-03 4.00145E-03 2.35416E-03 0.00000E+00 0.00000E+00
 56.100 6.23797E-03 4.00151E-03 2.23646E-03 0.00000E+00 0.00000E+00
 56.200 6.06845E-03 3.94971E-03 2.11875E-03 0.00000E+00 0.00000E+00
 56.300 5.92180E-03 3.92076E-03 2.00104E-03 0.00000E+00 0.00000E+00
 56.400 5.86629E-03 3.98296E-03 1.88333E-03 0.00000E+00 0.00000E+00
 56.500 5.94386E-03 4.17823E-03 1.76562E-03 0.00000E+00 0.00000E+00
 56.600 6.15714E-03 4.50922E-03 1.64792E-03 0.00000E+00 0.00000E+00
 56.700 6.46749E-03 4.93729E-03 1.53020E-03 0.00000E+00 0.00000E+00
 56.800 6.80394E-03 5.39144E-03 1.41250E-03 0.00000E+00 0.00000E+00
 56.900 7.08050E-03 5.78571E-03 1.29479E-03 0.00000E+00 0.00000E+00
 57.000 7.21667E-03 6.03959E-03 1.17708E-03 0.00000E+00 0.00000E+00
 57.100 7.15603E-03 6.09666E-03 1.05938E-03 0.00000E+00 0.00000E+00
 57.200 6.87822E-03 5.93655E-03 9.41664E-04 0.00000E+00 0.00000E+00
 57.300 6.40204E-03 5.57808E-03 8.23958E-04 0.00000E+00 0.00000E+00
 57.400 5.77940E-03 5.07315E-03 7.06247E-04 0.00000E+00 0.00000E+00
 57.500 5.08229E-03 4.49375E-03 5.88541E-04 0.00000E+00 0.00000E+00
 57.600 4.38606E-03 3.91523E-03 4.70834E-04 0.00000E+00 0.00000E+00
 57.700 3.75356E-03 3.40043E-03 3.53124E-04 0.00000E+00 0.00000E+00
 57.800 3.22373E-03 2.98831E-03 2.35417E-04 0.00000E+00 0.00000E+00
 57.900 2.80674E-03 2.68903E-03 1.17706E-04 0.00000E+00 0.00000E+00
 58.000 2.48671E-03 2.48671E-03 0.00000E+00 0.00000E+00 0.00000E+00
 58.100 2.34764E-03 2.34764E-03 0.00000E+00 0.00000E+00 0.00000E+00
 58.200 2.23174E-03 2.23174E-03 0.00000E+00 0.00000E+00 0.00000E+00
 58.300 2.10352E-03 2.10352E-03 0.00000E+00 0.00000E+00 0.00000E+00
 58.400 1.94002E-03 1.94002E-03 0.00000E+00 0.00000E+00 0.00000E+00
 58.500 1.73405E-03 1.73405E-03 0.00000E+00 0.00000E+00 0.00000E+00
 58.600 1.49279E-03 1.49279E-03 0.00000E+00 0.00000E+00 0.00000E+00
 58.700 1.23304E-03 1.23304E-03 0.00000E+00 0.00000E+00 0.00000E+00
 58.800 9.75184E-04 9.75184E-04 0.00000E+00 0.00000E+00 0.00000E+00
 58.900 7.37685E-04 7.37685E-04 0.00000E+00 0.00000E+00 0.00000E+00
 59.000 5.33554E-04 5.33554E-04 0.00000E+00 0.00000E+00 0.00000E+00
 59.100 3.68997E-04 3.68997E-04 0.00000E+00 0.00000E+00 0.00000E+00
 59.200 2.44078E-04 2.44078E-04 0.00000E+00 0.00000E+00 0.00000E+00
 59.300 1.54494E-04 1.54494E-04 0.00000E+00 0.00000E+00 0.00000E+00
 59.400 9.36249E-05 9.36249E-05 0.00000E+00 0.00000E+00 0.00000E+00
 59.500 5.43555E-05 5.43555E-05 0.00000E+00 0.00000E+00 0.00000E+00
 59.600 3.02492E-05 3.02492E-05 0.00000E+00 0.00000E+00 0.00000E+00
 59.700 1.61446E-05 1.61446E-05 0.00000E+00 0.00000E+00 0.00000E+00
 59.800 8.26812E-06 8.26812E-06 0.00000E+00 0.00000E+00 0.00000E+00
 59.900 4.06432E-06 4.06432E-06 0.00000E+00 0.00000E+00 0.00000E+00
 60.000 1.91820E-06 1.91820E-06 0.00000E+00 0.00000E+00 0.00000E+00
 60.100 8.69258E-07 8.69258E-07 0.00000E+00 0.00000E+00 0.00000E+00
 60.200 3.78188E-07 3.78188E-07 0.00000E+00 0.00000E+00 0.00000E+00
 60.300 1.57945E-07 1.57945E-07 0.00000E+00 0.00000E+00 0.00000E+00
 60.400 6.32940E-08 6.32940E-08 0.00000E+00 0.00000E+00 0.00000E+00
 60.500 2.43284E-08 2.43284E-08 0.00000E+00 0.00000E+00 0.00000E+00
 60.600 8.96426E-09 8.96426E-09 0.00000E+00 0.00000E+00 0.00000E+00
 60.700 3.16440E-09 3.16440E-09 0.00000E+00 0.00000E+00 0.00000E+00
 60.800 1.06959E-09 1.06959E-09 0.00000E+00 0.00000E+00 0.00000E+00
 60.900 3.45931E-10 3.45931E-10 0.00000E+00 0.00000E+00 0.00000E+00
 61.000 1.07003E-10 1.07003E-10 0.00000E+00 0.00000E+00 0.00000E+00
 61.100 3.16352E-11 3.16352E-11 0.00000E+00 0.00000E+00 0.00000E+00
 61.200 8.93459E-12 8.93459E-12 0.00000E+00 0.00000E+00 0.00000E+00
 61.300 2.40962E-12 2.40962E-12 0.00000E+00 0.00000E+00 0.00000E+00
 61.400 6.20253E-13 6.20253E-13 0.00000E+00 0.00000E+00 0.00000E+00
 61.500 1.52343E-13 1.52343E-13 0.00000E+00 0.00000E+00 0.00000E+00
 61.600 3.56904E-14 3.56904E-14 0.00000E+00 0.00000E+00 0.00000E+00
 61.700 7.97278E-15 7.97278E-15 0.00000E+00 0.00000E+00 0.00000E+00
 61.800 1.69804E-15 1.69804E-15 0.00000E+00 0.00000E+00 0.00000E+00
 61.900 3.44688E-16 3.44688E-16 0.00000E+00 0.00000E+00 0.00000E+00
 62.000 6.66846E-17 6.66846E-17 0.00000E+00 0.00000E+00 0.00000E+00
 62.100 1.22930E-17 1.22930E-17 0.00000E+00 0.00000E+00 0.00000E+00
 62.200 2.15896E-18 2.15896E-18 0.00000E+00 0.00000E+00 0.00000E+00
 62.300 3.61243E-19 3.61243E-19 0.00000E+00 0.00000E+00 0.00000E+00
 62.400 5.75741E-20 5.75741E-20 0.00000E+00 0.00000E+00 0.00000E+00
 62.500 8.74095E-21 8.74095E-21 0.00000E+00 0.00000E+00 0.00000E+00
 62.600 1.26398E-21 1.26398E-21 0.00000E+00 0.00000E+00 0.00000E+00
 62.700 1.74067E-22 1.74067E-22 0.00000E+00 0.00000E+00 0.00000E+00
 62.800 2.28317E-23 2.28317E-23 0.00000E+00 0.00000E+00 0.00000E+00
 62.900 2.85183E-24 2.85183E-24 0.00000E+00 0.00000E+00 0.00000E+00
 63.000 3.39259E-25 3.39259E-25 0.00000E+00 0.00000E+00 0.00000E+00
 63.100 3.84341E-26 3.84341E-26 0.00000E+00 0.00000E+00 0.00000E+00
 63.200 4.14606E-27 4.14606E-27 0.00000E+00 0.00000E+00 0.00000E+00
 63.300 4.25947E-28 4.25947E-28 0.00000E+00 0.00000E+00 0.00000E+00
 63.400 4.16673E-29 4.16673E-29 0.00000E+00 0.00000E+00 0.00000E+00
 63.500 3.88176E-30 3.88176E-30 0.00000E+00 0.00000E+00 0.00000E+00
 63.600 3.44361E-31 3.44361E-31 0.00000E+00 0.00000E+00 0.00000E+00
 63.700 2.90876E-32 2.90876E-32 0.00000E+00 0.00000E+00 0.00000E+00
 63.800 2.33985E-33 2.33985E-33 0.00000E+00 0.00000E+00 0.00000E+00
 63.900 1.79213E-34 1.79213E-34 0.00000E+00 0.00000E+00 0.00000E+00
 64.000 1.30719E-35 1.30719E-35 0.00000E+00 0.00000E+00 0.00000E+00
 64.100 9.07921E-37 9.07921E-37 0.00000E+00 0.00000E+00 0.00000E+00
 64.200 6.00482E-38 6.00482E-38 0.00000E+00 0.00000E+00 0.00000E+00
 64.300 3.78094E-39 3.78094E-39 0.00000E+00 0.00000E+00 0.00000E+00
 64.400 2.26741E-40 2.26741E-40 0.00000E+00 0.00000E+00 0.00000E+00
 64.500 1.29480E-41 1.29480E-41 0.00000E+00 0.00000E+00 0.00000E+00
 64.600 7.03452E-43 7.03452E-43 0.00000E+00 0.00000E+00 0.00000E+00
 64.700 3.64338E-44 3.64338E-44 0.00000E+00 0.00000E+00 0.00000E+00
 64.800 1.40130E-45 1.40130E-45 0.00000E+00 0.00000E+00 0.00000E+00
 64.900 0.00000E+00 0.00000E+00 0.00000E+00 0.00000E+00 0.00000E+00
 65.000 0.00000E+00 0.00000E+00 0.00000E+00 0.00000E+00 0.00000E+00
 65.100 0.00000E+00 0.00000E+00 0.00000E+00 0.00000E+00 0.00000E+00
 65.200 0.00000E+00 0.00000E+00 0.00000E+00 0.00000E+00 0.00000E+00
 65.300 0.00000E+00 0.00000E+00 0.00000E+00 0.00000E+00 0.00000E+00
 65.400 0.00000E+00 0.00000E+00 0.00000E+00 0.00000E+00 0.00000E+00
 65.500 0.00000E+00 0.00000E+00 0.00000E+00 0.00000E+00 0.00000E+00
 65.600 0.00000E+00 0.00000E+00 0.00000E+00 0.00000E+00 0.00000E+00
 65.700 0.00000E+00 0.00000E+00 0.00000E+00 0.00000E+00 0.00000E+00
 65.800 0.00000E+00 0.00000E+00 0.00000E+00 0.00000E+00 0.00000E+00
 65.900 0.00000E+00 0.00000E+00 0.00000E+00 0.00000E+00 0.00000E+00
 66.000 0.00000E+00 0.00000E+00 0.00000E+00 0.00000E+00 0.00000E+00
 66.100 0.00000E+00 0.00000E+00 0.00000E+00 0.00000E+00 0.00000E+00
 66.200 0.00000E+00 0.00000E+00 0.00000E+00 0.00000E+00 0.00000E+00
 66.300 0.00000E+00 0.00000E+00 0.00000E+00 0.00000E+00 0.00000E+00
 66.400 0.00000E+00 0.00000E+00 0.00000E+00 0.00000E+00 0.00000E+00
 66.500 0.00000E+00 0.00000E+00 0.00000E+00 0.00000E+00 0.00000E+00
 66.600 0.00000E+00 0.00000E+00 0.00000E+00 0.00000E+00 0.00000E+00
 66.700 0.00000E+00 0.00000E+00 0.00000E+00 0.00000E+00 0.00000E+00
 66.800 0.00000E+00 0.00000E+00 0.00000E+00 0.00000E+00 0.00000E+00
 66.900 0.00000E+00 0.00000E+00 0.00000E+00 0.00000E+00 0.00000E+00
 67.000 0.00000E+00 0.00000E+00 0.00000E+00 0.00000E+00 0.00000E+00
 67.100 0.00000E+00 0.00000E+00 0.00000E+00 0.00000E+00 0.00000E+00
 67.200 0.00000E+00 0.00000E+00 0.00000E+00 0.00000E+00 0.00000E+00
 67.300 0.00000E+00 0.00000E+00 0.00000E+00 0.00000E+00 0.00000E+00
 67.400 0.00000E+00 0.00000E+00 0.00000E+00 0.00000E+00 0.00000E+00
 67.500 0.00000E+00 0.00000E+00 0.00000E+00 0.00000E+00 0.00000E+00
 67.600 0.00000E+00 0.00000E+00 0.00000E+00 0.00000E+00 0.00000E+00
 67.700 0.00000E+00 0.00000E+00 0.00000E+00 0.00000E+00 0.00000E+00
 67.800 0.00000E+00 0.00000E+00 0.00000E+00 0.00000E+00 0.00000E+00
 67.900 0.00000E+00 0.00000E+00 0.00000E+00 0.00000E+00 0.00000E+00
 68.000 0.00000E+00 0.00000E+00 0.00000E+00 0.00000E+00 0.00000E+00
