# n + 209Bi: triton   DDX spectrum
# E-incident =   63.000
# Angle      =  20.000
# # energies =   227
#  E-out    Total       Direct    Pre-equil.  Mult. preeq  Compound
   0.400 0.00000E+00 0.00000E+00 0.00000E+00 0.00000E+00 0.00000E+00
   0.500 0.00000E+00 0.00000E+00 0.00000E+00 0.00000E+00 0.00000E+00
   0.600 0.00000E+00 0.00000E+00 0.00000E+00 0.00000E+00 0.00000E+00
   0.700 0.00000E+00 0.00000E+00 0.00000E+00 0.00000E+00 0.00000E+00
   0.800 0.00000E+00 0.00000E+00 0.00000E+00 0.00000E+00 0.00000E+00
   0.900 1.40130E-44 0.00000E+00 1.40130E-44 0.00000E+00 0.00000E+00
   1.000 7.14512E-12 0.00000E+00 2.34549E-41 0.00000E+00 7.14512E-12
   1.100 1.31294E-11 0.00000E+00 2.09354E-38 0.00000E+00 1.31294E-11
   1.200 7.16586E-11 0.00000E+00 1.74542E-35 0.00000E+00 7.16586E-11
   1.300 2.37455E-10 0.00000E+00 2.21769E-33 0.00000E+00 2.37455E-10
   1.400 6.17827E-10 0.00000E+00 1.63423E-31 0.00000E+00 6.17827E-10
   1.500 6.42313E-10 0.00000E+00 7.66639E-30 0.00000E+00 6.42313E-10
   1.600 6.52225E-10 0.00000E+00 2.46085E-28 0.00000E+00 6.52225E-10
   1.700 6.77055E-10 0.00000E+00 5.72086E-27 0.00000E+00 6.77055E-10
   1.800 6.86078E-10 0.00000E+00 1.00890E-25 0.00000E+00 6.86078E-10
   1.900 7.10272E-10 0.00000E+00 1.40059E-24 0.00000E+00 7.10272E-10
   2.000 9.31583E-10 0.00000E+00 1.57781E-23 0.00000E+00 9.31583E-10
   2.200 1.14017E-08 0.00000E+00 1.18132E-21 0.00000E+00 1.14017E-08
   2.400 6.69153E-08 0.00000E+00 4.96336E-20 0.00000E+00 6.69153E-08
   2.600 1.72492E-07 0.00000E+00 1.31397E-18 0.00000E+00 1.72492E-07
   2.800 2.45073E-07 0.00000E+00 2.38752E-17 0.00000E+00 2.45073E-07
   3.000 3.16744E-07 0.00000E+00 3.18000E-16 0.00000E+00 3.16744E-07
   3.200 6.63853E-06 0.00000E+00 3.26556E-15 0.00000E+00 6.63853E-06
   3.400 1.66999E-05 0.00000E+00 2.69166E-14 0.00000E+00 1.66999E-05
   3.600 1.94243E-05 0.00000E+00 1.83825E-13 0.00000E+00 1.94243E-05
   3.800 2.00809E-05 0.00000E+00 1.06753E-12 0.00000E+00 2.00808E-05
   4.000 2.08611E-05 0.00000E+00 5.38445E-12 0.00000E+00 2.08611E-05
   4.500 2.26408E-05 0.00000E+00 1.84679E-10 0.00000E+00 2.26406E-05
   5.000 2.79976E-05 0.00000E+00 3.54915E-09 0.00000E+00 2.79941E-05
   5.500 4.50244E-05 0.00000E+00 4.35799E-08 0.00000E+00 4.49808E-05
   6.000 5.68558E-05 0.00000E+00 3.73833E-07 0.00000E+00 5.64819E-05
   6.500 7.15487E-05 0.00000E+00 2.39053E-06 0.00000E+00 6.91582E-05
   7.000 2.87224E-04 0.00000E+00 1.19626E-05 0.00000E+00 2.75261E-04
   7.500 4.50709E-04 0.00000E+00 4.87252E-05 0.00000E+00 4.01983E-04
   8.000 6.51743E-04 0.00000E+00 1.66763E-04 0.00000E+00 4.84980E-04
   8.500 1.05708E-03 0.00000E+00 4.91472E-04 0.00000E+00 5.65609E-04
   9.000 1.90536E-03 0.00000E+00 1.26741E-03 0.00000E+00 6.37946E-04
   9.500 3.58589E-03 0.00000E+00 2.87765E-03 0.00000E+00 7.08244E-04
  10.000 6.54819E-03 0.00000E+00 5.74238E-03 0.00000E+00 8.05809E-04
  10.500 1.09910E-02 0.00000E+00 1.00619E-02 0.00000E+00 9.29154E-04
  11.000 1.65676E-02 0.00000E+00 1.56472E-02 0.00000E+00 9.20436E-04
  11.500 2.29286E-02 0.00000E+00 2.20735E-02 0.00000E+00 8.55175E-04
  12.000 2.97199E-02 0.00000E+00 2.89443E-02 0.00000E+00 7.75589E-04
  12.500 3.66920E-02 0.00000E+00 3.59974E-02 0.00000E+00 6.94528E-04
  13.000 4.36956E-02 0.00000E+00 4.30801E-02 0.00000E+00 6.15487E-04
  13.500 5.06544E-02 0.00000E+00 5.01265E-02 0.00000E+00 5.27916E-04
  14.000 5.75679E-02 0.00000E+00 5.71229E-02 0.00000E+00 4.45033E-04
  14.500 6.44015E-02 0.00000E+00 6.40503E-02 0.00000E+00 3.51199E-04
  15.000 7.11744E-02 0.00000E+00 7.08983E-02 0.00000E+00 2.76098E-04
  15.500 7.78671E-02 0.00000E+00 7.76756E-02 0.00000E+00 1.91462E-04
  16.000 8.45004E-02 0.00000E+00 8.43811E-02 0.00000E+00 1.19317E-04
  16.500 9.10862E-02 0.00000E+00 9.09910E-02 0.00000E+00 9.52129E-05
  17.000 9.75603E-02 0.00000E+00 9.74858E-02 0.00000E+00 7.45397E-05
  17.500 1.03919E-01 0.00000E+00 1.03870E-01 0.00000E+00 4.85858E-05
  18.000 1.10184E-01 0.00000E+00 1.10154E-01 0.00000E+00 2.99840E-05
  18.500 1.16353E-01 0.00000E+00 1.16334E-01 0.00000E+00 1.85606E-05
  19.000 1.22414E-01 0.00000E+00 1.22401E-01 0.00000E+00 1.30300E-05
  19.500 1.28369E-01 0.00000E+00 1.28359E-01 0.00000E+00 1.04851E-05
  20.000 1.34241E-01 0.00000E+00 1.34233E-01 0.00000E+00 7.53341E-06
  21.000 1.45830E-01 0.00000E+00 1.45828E-01 0.00000E+00 2.21885E-06
  22.000 1.57286E-01 0.00000E+00 1.57285E-01 0.00000E+00 1.31387E-06
  23.000 1.68686E-01 0.00000E+00 1.68686E-01 0.00000E+00 6.80725E-07
  24.000 1.80153E-01 0.00000E+00 1.80153E-01 0.00000E+00 1.90154E-07
  25.000 1.91750E-01 0.00000E+00 1.91750E-01 0.00000E+00 1.21068E-07
  26.000 1.98591E-01 0.00000E+00 1.98591E-01 0.00000E+00 5.44579E-08
  27.000 2.03574E-01 0.00000E+00 2.03574E-01 0.00000E+00 1.82603E-08
  28.000 2.07841E-01 0.00000E+00 2.07841E-01 0.00000E+00 9.83113E-09
  29.000 2.11407E-01 0.00000E+00 2.11407E-01 0.00000E+00 3.26688E-09
  30.000 2.14301E-01 0.00000E+00 2.14301E-01 0.00000E+00 1.52296E-09
  31.000 2.16548E-01 0.00000E+00 2.16548E-01 0.00000E+00 6.75113E-10
  32.000 2.18151E-01 0.00000E+00 2.18151E-01 0.00000E+00 2.25140E-10
  33.000 2.19116E-01 0.00000E+00 2.19116E-01 0.00000E+00 1.45490E-12
  34.000 2.19466E-01 0.00000E+00 2.19466E-01 0.00000E+00 0.00000E+00
  35.000 2.19220E-01 0.00000E+00 2.19220E-01 0.00000E+00 0.00000E+00
  36.000 2.18388E-01 0.00000E+00 2.18388E-01 0.00000E+00 0.00000E+00
  37.000 2.16975E-01 0.00000E+00 2.16975E-01 0.00000E+00 0.00000E+00
  38.000 2.14987E-01 0.00000E+00 2.14987E-01 0.00000E+00 0.00000E+00
  39.000 2.12430E-01 0.00000E+00 2.12430E-01 0.00000E+00 0.00000E+00
  40.000 2.09300E-01 0.00000E+00 2.09300E-01 0.00000E+00 0.00000E+00
  42.000 2.01295E-01 0.00000E+00 2.01295E-01 0.00000E+00 0.00000E+00
  44.000 1.90909E-01 0.00000E+00 1.90909E-01 0.00000E+00 0.00000E+00
  46.000 1.78002E-01 0.00000E+00 1.78002E-01 0.00000E+00 0.00000E+00
  48.000 1.62358E-01 0.00000E+00 1.62358E-01 0.00000E+00 0.00000E+00
  50.000 1.43670E-01 0.00000E+00 1.43670E-01 0.00000E+00 0.00000E+00
  52.000 1.21510E-01 0.00000E+00 1.21510E-01 0.00000E+00 0.00000E+00
  54.000 9.53205E-02 0.00000E+00 9.53205E-02 0.00000E+00 0.00000E+00
  56.000 6.43816E-02 0.00000E+00 6.43816E-02 0.00000E+00 0.00000E+00
  56.100 6.15865E-02 1.60992E-04 6.14255E-02 0.00000E+00 0.00000E+00
  56.200 5.87859E-02 3.16629E-04 5.84693E-02 0.00000E+00 0.00000E+00
  56.300 5.61066E-02 5.93440E-04 5.55132E-02 0.00000E+00 0.00000E+00
  56.400 5.36173E-02 1.06034E-03 5.25569E-02 0.00000E+00 0.00000E+00
  56.500 5.14075E-02 1.80672E-03 4.96008E-02 0.00000E+00 0.00000E+00
  56.600 4.95815E-02 2.93680E-03 4.66447E-02 0.00000E+00 0.00000E+00
  56.700 4.82443E-02 4.55582E-03 4.36885E-02 0.00000E+00 0.00000E+00
  56.800 4.74797E-02 6.74734E-03 4.07324E-02 0.00000E+00 0.00000E+00
  56.900 4.73214E-02 9.54531E-03 3.77761E-02 0.00000E+00 0.00000E+00
  57.000 4.77255E-02 1.29055E-02 3.48200E-02 0.00000E+00 0.00000E+00
  57.100 4.85522E-02 1.66883E-02 3.18639E-02 0.00000E+00 0.00000E+00
  57.200 4.95676E-02 2.06599E-02 2.89077E-02 0.00000E+00 0.00000E+00
  57.300 5.04700E-02 2.45184E-02 2.59516E-02 0.00000E+00 0.00000E+00
  57.400 5.09406E-02 2.79453E-02 2.29953E-02 0.00000E+00 0.00000E+00
  57.500 5.07057E-02 3.06665E-02 2.00392E-02 0.00000E+00 0.00000E+00
  57.600 4.95936E-02 3.25105E-02 1.70831E-02 0.00000E+00 0.00000E+00
  57.700 4.75675E-02 3.34406E-02 1.41269E-02 0.00000E+00 0.00000E+00
  57.800 4.47236E-02 3.35529E-02 1.11707E-02 0.00000E+00 0.00000E+00
  57.900 4.12538E-02 3.30393E-02 8.21452E-03 0.00000E+00 0.00000E+00
  58.000 3.73896E-02 3.21312E-02 5.25840E-03 0.00000E+00 0.00000E+00
  58.100 3.60384E-02 3.10429E-02 4.99549E-03 0.00000E+00 0.00000E+00
  58.200 3.46687E-02 2.99361E-02 4.73256E-03 0.00000E+00 0.00000E+00
  58.300 3.33817E-02 2.89121E-02 4.46965E-03 0.00000E+00 0.00000E+00
  58.400 3.22324E-02 2.80257E-02 4.20672E-03 0.00000E+00 0.00000E+00
  58.500 3.12524E-02 2.73086E-02 3.94380E-03 0.00000E+00 0.00000E+00
  58.600 3.04641E-02 2.67832E-02 3.68089E-03 0.00000E+00 0.00000E+00
  58.700 2.98784E-02 2.64605E-02 3.41796E-03 0.00000E+00 0.00000E+00
  58.800 2.94792E-02 2.63242E-02 3.15504E-03 0.00000E+00 0.00000E+00
  58.900 2.92057E-02 2.63136E-02 2.89212E-03 0.00000E+00 0.00000E+00
  59.000 2.89469E-02 2.63177E-02 2.62920E-03 0.00000E+00 0.00000E+00
  59.100 2.85544E-02 2.61881E-02 2.36629E-03 0.00000E+00 0.00000E+00
  59.200 2.78733E-02 2.57699E-02 2.10336E-03 0.00000E+00 0.00000E+00
  59.300 2.67796E-02 2.49392E-02 1.84044E-03 0.00000E+00 0.00000E+00
  59.400 2.52116E-02 2.36341E-02 1.57752E-03 0.00000E+00 0.00000E+00
  59.500 2.31843E-02 2.18697E-02 1.31460E-03 0.00000E+00 0.00000E+00
  59.600 2.07831E-02 1.97314E-02 1.05168E-03 0.00000E+00 0.00000E+00
  59.700 1.81418E-02 1.73530E-02 7.88759E-04 0.00000E+00 0.00000E+00
  59.800 1.54119E-02 1.48860E-02 5.25842E-04 0.00000E+00 0.00000E+00
  59.900 1.27336E-02 1.24707E-02 2.62916E-04 0.00000E+00 0.00000E+00
  60.000 1.02167E-02 1.02167E-02 0.00000E+00 0.00000E+00 0.00000E+00
  60.100 8.19507E-03 8.19507E-03 0.00000E+00 0.00000E+00 0.00000E+00
  60.200 6.43982E-03 6.43982E-03 0.00000E+00 0.00000E+00 0.00000E+00
  60.300 4.95681E-03 4.95681E-03 0.00000E+00 0.00000E+00 0.00000E+00
  60.400 3.73310E-03 3.73310E-03 0.00000E+00 0.00000E+00 0.00000E+00
  60.500 2.74590E-03 2.74590E-03 0.00000E+00 0.00000E+00 0.00000E+00
  60.600 1.96786E-03 1.96786E-03 0.00000E+00 0.00000E+00 0.00000E+00
  60.700 1.37031E-03 1.37031E-03 0.00000E+00 0.00000E+00 0.00000E+00
  60.800 9.24656E-04 9.24656E-04 0.00000E+00 0.00000E+00 0.00000E+00
  60.900 6.03048E-04 6.03048E-04 0.00000E+00 0.00000E+00 0.00000E+00
  61.000 3.79275E-04 3.79275E-04 0.00000E+00 0.00000E+00 0.00000E+00
  61.100 2.29579E-04 2.29579E-04 0.00000E+00 0.00000E+00 0.00000E+00
  61.200 1.33530E-04 1.33530E-04 0.00000E+00 0.00000E+00 0.00000E+00
  61.300 7.45323E-05 7.45323E-05 0.00000E+00 0.00000E+00 0.00000E+00
  61.400 3.98809E-05 3.98809E-05 0.00000E+00 0.00000E+00 0.00000E+00
  61.500 2.04415E-05 2.04415E-05 0.00000E+00 0.00000E+00 0.00000E+00
  61.600 1.00301E-05 1.00301E-05 0.00000E+00 0.00000E+00 0.00000E+00
  61.700 4.70894E-06 4.70894E-06 0.00000E+00 0.00000E+00 0.00000E+00
  61.800 2.11462E-06 2.11462E-06 0.00000E+00 0.00000E+00 0.00000E+00
  61.900 9.08002E-07 9.08002E-07 0.00000E+00 0.00000E+00 0.00000E+00
  62.000 3.72754E-07 3.72754E-07 0.00000E+00 0.00000E+00 0.00000E+00
  62.100 1.46271E-07 1.46271E-07 0.00000E+00 0.00000E+00 0.00000E+00
  62.200 5.48558E-08 5.48558E-08 0.00000E+00 0.00000E+00 0.00000E+00
  62.300 1.96612E-08 1.96612E-08 0.00000E+00 0.00000E+00 0.00000E+00
  62.400 6.73378E-09 6.73378E-09 0.00000E+00 0.00000E+00 0.00000E+00
  62.500 2.20384E-09 2.20384E-09 0.00000E+00 0.00000E+00 0.00000E+00
  62.600 6.89195E-10 6.89195E-10 0.00000E+00 0.00000E+00 0.00000E+00
  62.700 2.05926E-10 2.05926E-10 0.00000E+00 0.00000E+00 0.00000E+00
  62.800 5.87918E-11 5.87918E-11 0.00000E+00 0.00000E+00 0.00000E+00
  62.900 1.60366E-11 1.60366E-11 0.00000E+00 0.00000E+00 0.00000E+00
  63.000 4.17959E-12 4.17959E-12 0.00000E+00 0.00000E+00 0.00000E+00
  63.100 1.04077E-12 1.04077E-12 0.00000E+00 0.00000E+00 0.00000E+00
  63.200 2.47602E-13 2.47602E-13 0.00000E+00 0.00000E+00 0.00000E+00
  63.300 5.62825E-14 5.62825E-14 0.00000E+00 0.00000E+00 0.00000E+00
  63.400 1.22225E-14 1.22225E-14 0.00000E+00 0.00000E+00 0.00000E+00
  63.500 2.53611E-15 2.53611E-15 0.00000E+00 0.00000E+00 0.00000E+00
  63.600 5.02770E-16 5.02770E-16 0.00000E+00 0.00000E+00 0.00000E+00
  63.700 9.52213E-17 9.52213E-17 0.00000E+00 0.00000E+00 0.00000E+00
  63.800 1.72313E-17 1.72313E-17 0.00000E+00 0.00000E+00 0.00000E+00
  63.900 2.97896E-18 2.97896E-18 0.00000E+00 0.00000E+00 0.00000E+00
  64.000 4.92075E-19 4.92075E-19 0.00000E+00 0.00000E+00 0.00000E+00
  64.100 7.76586E-20 7.76586E-20 0.00000E+00 0.00000E+00 0.00000E+00
  64.200 1.17095E-20 1.17095E-20 0.00000E+00 0.00000E+00 0.00000E+00
  64.300 1.68660E-21 1.68660E-21 0.00000E+00 0.00000E+00 0.00000E+00
  64.400 2.32136E-22 2.32136E-22 0.00000E+00 0.00000E+00 0.00000E+00
  64.500 3.05254E-23 3.05254E-23 0.00000E+00 0.00000E+00 0.00000E+00
  64.600 3.83509E-24 3.83509E-24 0.00000E+00 0.00000E+00 0.00000E+00
  64.700 4.60337E-25 4.60337E-25 0.00000E+00 0.00000E+00 0.00000E+00
  64.800 5.27833E-26 5.27833E-26 0.00000E+00 0.00000E+00 0.00000E+00
  64.900 5.78335E-27 5.78335E-27 0.00000E+00 0.00000E+00 0.00000E+00
  65.000 6.05413E-28 6.05413E-28 0.00000E+00 0.00000E+00 0.00000E+00
  65.100 6.05504E-29 6.05504E-29 0.00000E+00 0.00000E+00 0.00000E+00
  65.200 5.78588E-30 5.78588E-30 0.00000E+00 0.00000E+00 0.00000E+00
  65.300 5.28122E-31 5.28122E-31 0.00000E+00 0.00000E+00 0.00000E+00
  65.400 4.60651E-32 4.60651E-32 0.00000E+00 0.00000E+00 0.00000E+00
  65.500 3.83878E-33 3.83878E-33 0.00000E+00 0.00000E+00 0.00000E+00
  65.600 3.05642E-34 3.05642E-34 0.00000E+00 0.00000E+00 0.00000E+00
  65.700 2.32496E-35 2.32496E-35 0.00000E+00 0.00000E+00 0.00000E+00
  65.800 1.68938E-36 1.68938E-36 0.00000E+00 0.00000E+00 0.00000E+00
  65.900 1.17304E-37 1.17304E-37 0.00000E+00 0.00000E+00 0.00000E+00
  66.000 7.78203E-39 7.78203E-39 0.00000E+00 0.00000E+00 0.00000E+00
  66.100 4.93240E-40 4.93240E-40 0.00000E+00 0.00000E+00 0.00000E+00
  66.200 2.98687E-41 2.98687E-41 0.00000E+00 0.00000E+00 0.00000E+00
  66.300 1.72780E-42 1.72780E-42 0.00000E+00 0.00000E+00 0.00000E+00
  66.400 9.52883E-44 9.52883E-44 0.00000E+00 0.00000E+00 0.00000E+00
  66.500 5.60519E-45 5.60519E-45 0.00000E+00 0.00000E+00 0.00000E+00
  66.600 0.00000E+00 0.00000E+00 0.00000E+00 0.00000E+00 0.00000E+00
  66.700 0.00000E+00 0.00000E+00 0.00000E+00 0.00000E+00 0.00000E+00
  66.800 0.00000E+00 0.00000E+00 0.00000E+00 0.00000E+00 0.00000E+00
  66.900 0.00000E+00 0.00000E+00 0.00000E+00 0.00000E+00 0.00000E+00
  67.000 0.00000E+00 0.00000E+00 0.00000E+00 0.00000E+00 0.00000E+00
  67.100 0.00000E+00 0.00000E+00 0.00000E+00 0.00000E+00 0.00000E+00
  67.200 0.00000E+00 0.00000E+00 0.00000E+00 0.00000E+00 0.00000E+00
  67.300 0.00000E+00 0.00000E+00 0.00000E+00 0.00000E+00 0.00000E+00
  67.400 0.00000E+00 0.00000E+00 0.00000E+00 0.00000E+00 0.00000E+00
  67.500 0.00000E+00 0.00000E+00 0.00000E+00 0.00000E+00 0.00000E+00
  67.600 0.00000E+00 0.00000E+00 0.00000E+00 0.00000E+00 0.00000E+00
  67.700 0.00000E+00 0.00000E+00 0.00000E+00 0.00000E+00 0.00000E+00
  67.800 0.00000E+00 0.00000E+00 0.00000E+00 0.00000E+00 0.00000E+00
  67.900 0.00000E+00 0.00000E+00 0.00000E+00 0.00000E+00 0.00000E+00
  68.000 0.00000E+00 0.00000E+00 0.00000E+00 0.00000E+00 0.00000E+00
  68.100 0.00000E+00 0.00000E+00 0.00000E+00 0.00000E+00 0.00000E+00
  68.200 0.00000E+00 0.00000E+00 0.00000E+00 0.00000E+00 0.00000E+00
  68.300 0.00000E+00 0.00000E+00 0.00000E+00 0.00000E+00 0.00000E+00
  68.400 0.00000E+00 0.00000E+00 0.00000E+00 0.00000E+00 0.00000E+00
  68.500 0.00000E+00 0.00000E+00 0.00000E+00 0.00000E+00 0.00000E+00
  68.600 0.00000E+00 0.00000E+00 0.00000E+00 0.00000E+00 0.00000E+00
  68.700 0.00000E+00 0.00000E+00 0.00000E+00 0.00000E+00 0.00000E+00
  68.800 0.00000E+00 0.00000E+00 0.00000E+00 0.00000E+00 0.00000E+00
  68.900 0.00000E+00 0.00000E+00 0.00000E+00 0.00000E+00 0.00000E+00
  69.000 0.00000E+00 0.00000E+00 0.00000E+00 0.00000E+00 0.00000E+00
  69.100 0.00000E+00 0.00000E+00 0.00000E+00 0.00000E+00 0.00000E+00
  69.200 0.00000E+00 0.00000E+00 0.00000E+00 0.00000E+00 0.00000E+00
  69.300 0.00000E+00 0.00000E+00 0.00000E+00 0.00000E+00 0.00000E+00
  69.400 0.00000E+00 0.00000E+00 0.00000E+00 0.00000E+00 0.00000E+00
  69.500 0.00000E+00 0.00000E+00 0.00000E+00 0.00000E+00 0.00000E+00
  69.600 0.00000E+00 0.00000E+00 0.00000E+00 0.00000E+00 0.00000E+00
  69.700 0.00000E+00 0.00000E+00 0.00000E+00 0.00000E+00 0.00000E+00
  69.800 0.00000E+00 0.00000E+00 0.00000E+00 0.00000E+00 0.00000E+00
  69.900 0.00000E+00 0.00000E+00 0.00000E+00 0.00000E+00 0.00000E+00
  70.000 0.00000E+00 0.00000E+00 0.00000E+00 0.00000E+00 0.00000E+00
